time (s)	coil I (A)	last det (V)	int current (uC)
1830.285538	0.333239	-26.562500	-46.582031
1830.287540	0.651110	-26.562500	-46.582031
1830.289539	0.830348	-26.562500	-46.582031
1830.291541	0.830559	9.136149	-0.001636
1831.315656	0.594361	300.195312	118.750000
1831.317658	0.819633	300.195312	118.750000
1831.319658	0.829649	300.195312	118.750000
1831.321658	0.827605	9.103661	0.178069
1832.361693	0.376021	-28.027344	-46.679687
1832.363697	0.690232	-28.027344	-46.679687
1832.365695	0.833822	-28.027344	-46.679687
1832.367696	0.833934	9.173274	-0.002392
1833.387724	0.330186	300.683594	118.164062
1833.389726	0.648031	300.683594	118.164062
1833.391727	0.828888	300.683594	118.164062
1833.393727	0.829243	9.121669	-0.003219
1834.445788	0.658374	-29.687500	-51.171875
1834.447787	0.829788	-29.687500	-51.171875
1834.449789	0.829076	9.119835	-0.002304
1835.464325	1.282096	300.683594	122.167969
1835.466326	0.676684	300.683594	122.167969
1835.468326	0.831997	300.683594	122.167969
1835.470327	0.830455	9.135006	-0.002531
1836.520371	0.551600	-29.980469	-53.417969
1836.522372	0.805824	-29.980469	-53.417969
1836.524372	0.829962	-29.980469	-53.417969
1836.526373	0.829829	9.128120	-0.001630
1837.542981	0.414080	297.949219	119.824219
1837.544982	0.722569	297.949219	119.824219
1837.546983	0.831930	297.949219	119.824219
1837.548982	0.829069	9.119763	-0.002082
1838.597080	0.376316	-28.808594	-53.613281
1838.601081	0.831661	-28.808594	-53.613281
1838.603082	0.829434	-28.808594	-53.613281
1838.605084	0.827791	9.105699	-0.001965
1839.621123	0.787419	303.027344	126.269531
1839.623125	0.830363	303.027344	126.269531
1839.625125	0.827925	9.107180	-0.002846
1840.675674	0.771576	-26.464844	-52.050781
1840.677675	0.820179	-26.464844	-52.050781
1840.679676	0.829372	-26.464844	-52.050781
1840.681676	0.827374	9.101117	-0.003008
1841.701649	0.819333	292.773437	117.871094
1841.703650	0.829499	292.773437	117.871094
1841.705651	0.829446	9.123902	0.185668
1842.751641	0.609192	-27.636719	-54.296875
1842.753643	0.824027	-27.636719	-54.296875
1842.755644	0.830778	-27.636719	-54.296875
1842.757643	0.828681	9.115492	0.264814
1843.773702	0.424781	306.347656	126.757812
1843.775704	0.730714	306.347656	126.757812
1843.779703	0.829205	306.347656	126.757812
1843.781704	0.827674	9.104414	-0.002680
1844.830250	0.753709	-30.468750	-57.812500
1844.832252	0.831064	-30.468750	-57.812500
1844.834252	0.828289	9.111176	-0.002087
1845.852246	0.308837	301.855469	120.898437
1845.854253	0.627860	301.855469	120.898437
1845.856254	0.828017	301.855469	120.898437
1845.858255	0.831049	301.855469	120.898437
1845.860255	0.828954	9.118496	-0.002617
1846.904304	0.335396	-28.222656	-55.468750
1846.906306	0.652755	-28.222656	-55.468750
1846.908305	0.829832	-28.222656	-55.468750
1846.910306	0.829905	9.128953	-0.002224
1847.928312	0.541967	314.648437	128.515625
1847.930314	0.801665	314.648437	128.515625
1847.932314	0.829782	314.648437	128.515625
1847.934315	0.827642	9.104059	-0.002929
1848.986305	0.816231	-27.148437	-54.003906
1848.988307	0.830668	-27.148437	-54.003906
1848.990309	0.828472	9.113188	0.108289
1850.006334	0.532552	315.625000	125.683594
1850.008335	0.797441	315.625000	125.683594
1850.010336	0.830031	315.625000	125.683594
1850.012336	0.827737	9.105105	-0.003442
1851.061341	0.516380	-30.566406	-57.714844
1851.063344	0.789798	-30.566406	-57.714844
1851.065345	0.830333	-30.566406	-57.714844
1851.067345	0.827925	9.107170	-0.002565
1852.082259	0.415400	314.062500	118.652344
1852.084259	0.723951	314.062500	118.652344
1852.086261	0.834952	314.062500	118.652344
1852.088260	0.832361	9.155966	-0.001986
1853.136296	0.303339	-31.152344	-56.640625
1853.138298	0.622621	-31.152344	-56.640625
1853.140298	0.826068	-31.152344	-56.640625
1853.142299	0.830054	-31.152344	-56.640625
1853.144298	0.828024	9.108260	-0.001386
1854.158888	0.257958	318.847656	117.578125
1854.160889	0.579883	318.847656	117.578125
1854.162889	0.815333	318.847656	117.578125
1854.164888	0.829471	318.847656	117.578125
1854.166889	0.827374	9.101109	-0.003143
1855.214904	0.572329	-29.296875	-53.515625
1855.216907	0.813743	-29.296875	-53.515625
1855.218906	0.830564	-29.296875	-53.515625
1855.220905	0.828341	9.111752	0.059949
1856.238971	0.442023	327.539062	118.164062
1856.240971	0.743613	327.539062	118.164062
1856.242972	0.830937	327.539062	118.164062
1856.244971	0.828144	9.109590	-0.003004
1857.289054	0.478497	-28.320312	-52.148437
1857.291055	0.768085	-28.320312	-52.148437
1857.293059	0.830171	-28.320312	-52.148437
1857.295058	0.827623	9.103856	-0.002140
1858.317093	0.324175	328.710937	116.406250
1858.321097	0.829076	328.710937	116.406250
1858.323098	0.829782	328.710937	116.406250
1858.325097	0.828315	9.111468	-0.004015
1859.365171	0.510685	-30.664062	-57.031250
1859.367173	0.786770	-30.664062	-57.031250
1859.369173	0.830260	-30.664062	-57.031250
1859.371174	0.827791	9.105699	-0.002933
1860.397222	0.547620	333.886719	124.218750
1860.399222	0.803842	333.886719	124.218750
1860.403220	0.827273	333.886719	124.218750
1860.405222	0.825942	9.085360	-0.002758
1861.445766	0.831275	-27.734375	-55.175781
1861.447770	0.828492	-27.734375	-55.175781
1861.449769	0.827035	9.097386	-0.002235
1862.471830	0.277616	319.531250	119.921875
1862.473833	0.598339	319.531250	119.921875
1862.475833	0.820562	319.531250	119.921875
1862.477832	0.829504	319.531250	119.921875
1862.479833	0.827592	9.103510	-0.002685
1863.521866	0.792470	-27.050781	-55.957031
1863.523867	0.829543	-27.050781	-55.957031
1863.525867	0.827269	9.099956	-0.003439
1864.547908	0.494011	319.433594	121.484375
1864.549910	0.777317	319.433594	121.484375
1864.551910	0.829934	319.433594	121.484375
1864.553909	0.827484	9.102323	-0.002801
1865.599945	0.534465	-29.199219	-60.449219
1865.601947	0.798403	-29.199219	-60.449219
1865.603946	0.830129	-29.199219	-60.449219
1865.605946	0.827767	9.105433	-0.002589
1866.624016	0.566338	333.203125	125.000000
1866.626019	0.810795	333.203125	125.000000
1866.628017	0.829108	333.203125	125.000000
1866.630017	0.827079	9.097864	-0.003553
1867.680649	0.776645	-27.832031	-57.714844
1867.682652	0.830410	-27.832031	-57.714844
1867.684652	0.827946	9.107409	-0.002597
1868.703146	0.831460	338.769531	122.070312
1868.705145	0.828653	338.769531	122.070312
1868.707147	0.827090	9.097989	-0.002071
1869.755733	0.597615	-32.128906	-60.156250
1869.757734	0.819612	-32.128906	-60.156250
1869.759734	0.828629	-32.128906	-60.156250
1869.761735	0.826582	9.092397	-0.001865
1870.780295	0.786638	337.109375	114.648437
1870.782296	0.829954	337.109375	114.648437
1870.784296	0.827511	9.102624	-0.003275
1871.828784	0.531383	-30.273437	-57.031250
1871.830787	0.797081	-30.273437	-57.031250
1871.832790	0.830039	-30.273437	-57.031250
1871.834789	0.827684	9.104529	-0.001894
1872.856787	0.395975	349.023437	116.796875
1872.858790	0.707362	349.023437	116.796875
1872.860788	0.831806	349.023437	116.796875
1872.862789	0.829174	9.120915	-0.002220
1873.906843	0.567193	-29.003906	-56.445312
1873.908846	0.811508	-29.003906	-56.445312
1873.910845	0.829699	-29.003906	-56.445312
1873.912845	0.827597	9.103563	0.051542
1874.934930	0.364779	345.703125	115.234375
1874.936931	0.679888	345.703125	115.234375
1874.938933	0.830856	345.703125	115.234375
1874.940933	0.829109	9.120198	-0.003372
1875.982928	0.597779	-29.199219	-58.789062
1875.984930	0.819800	-29.199219	-58.789062
1875.986930	0.828727	-29.199219	-58.789062
1875.988932	0.828619	9.114810	0.206543
1877.012935	0.475090	348.535156	120.214844
1877.014936	0.765788	348.535156	120.214844
1877.016938	0.829900	348.535156	120.214844
1877.018935	0.827372	9.101090	-0.002066
1878.058952	0.496419	-28.515625	-59.082031
1878.060956	0.778794	-28.515625	-59.082031
1878.062955	0.830147	-28.515625	-59.082031
1878.064954	0.827678	9.104458	-0.002574
1879.090967	0.567834	347.460937	121.972656
1879.092970	0.811305	347.460937	121.972656
1879.094969	0.829175	347.460937	121.972656
1879.096969	0.827199	9.099185	0.051567
1880.137019	0.572529	-28.027344	-59.472656
1880.139021	0.812784	-28.027344	-59.472656
1880.141020	0.829109	-28.027344	-59.472656
1880.143019	0.827121	9.098334	-0.003118
1881.167054	0.455038	343.554687	120.898437
1881.169055	0.752735	343.554687	120.898437
1881.171056	0.830544	343.554687	120.898437
1881.173055	0.827759	9.105345	-0.001933
1882.213093	0.498794	-27.832031	-60.449219
1882.215095	0.780049	-27.832031	-60.449219
1882.217096	0.829999	-27.832031	-60.449219
1882.219095	0.827517	9.102686	-0.003340
1883.243130	0.462254	344.433594	120.703125
1883.245132	0.757750	344.433594	120.703125
1883.247131	0.830548	344.433594	120.703125
1883.249131	0.827888	9.106771	-0.002189
1884.293123	0.583675	-30.078125	-63.867187
1884.295125	0.816279	-30.078125	-63.867187
1884.297126	0.829072	-30.078125	-63.867187
1884.299127	0.827036	9.097395	0.126804
1885.319162	0.461136	341.992187	118.652344
1885.321162	0.756901	341.992187	118.652344
1885.323163	0.830371	341.992187	118.652344
1885.325164	0.827723	9.104955	-0.003165
1886.367183	0.394186	-29.687500	-63.574219
1886.369186	0.705678	-29.687500	-63.574219
1886.371184	0.831550	-29.687500	-63.574219
1886.373186	0.828890	9.117787	-0.001600
1887.401234	0.823152	353.515625	124.023437
1887.403238	0.828823	353.515625	124.023437
1887.405237	0.826948	9.096429	0.276727
1888.443778	0.381851	-29.589844	-63.574219
1888.445781	0.695076	-29.589844	-63.574219
1888.447778	0.831429	-29.589844	-63.574219
1888.449779	0.829048	9.119533	-0.002482
1889.475799	0.597385	352.441406	120.312500
1889.477800	0.820182	352.441406	120.312500
1889.479799	0.829405	352.441406	120.312500
1889.481801	0.827450	9.101951	0.200626
1890.521861	0.504595	-28.515625	-62.109375
1890.523863	0.783278	-28.515625	-62.109375
1890.525862	0.829629	-28.515625	-62.109375
1890.527865	0.827299	9.100285	-0.002911
1891.551846	0.398620	356.738281	117.968750
1891.553850	0.709570	356.738281	117.968750
1891.555848	0.832212	356.738281	117.968750
1891.557850	0.829604	9.125648	-0.002544
1892.599930	0.733855	-28.710937	-62.109375
1892.601934	0.737701	-28.710937	-62.109375
1892.603933	0.827994	9.107933	-0.002568
1893.631958	0.759056	369.921875	121.289062
1893.633960	0.830411	369.921875	121.289062
1893.635960	0.827713	9.104849	-0.002459
1894.676015	0.531005	-29.003906	-61.718750
1894.678017	0.796544	-29.003906	-61.718750
1894.680018	0.829614	-29.003906	-61.718750
1894.682018	0.827366	9.101028	-0.002702
1895.706098	0.379571	373.828125	118.066406
1895.708100	0.692871	373.828125	118.066406
1895.710101	0.830601	373.828125	118.066406
1895.712100	0.828344	9.111778	-0.002841
1896.752110	0.336597	-29.492187	-62.011719
1896.754111	0.653795	-29.492187	-62.011719
1896.756112	0.828754	-29.492187	-62.011719
1896.760110	0.826945	9.096394	-0.003401
1897.782136	0.442447	386.718750	123.144531
1897.784137	0.743770	386.718750	123.144531
1897.786136	0.830545	386.718750	123.144531
1897.788137	0.827801	9.105814	-0.003752
1898.834171	0.515759	-32.812500	-65.136719
1898.836174	0.830262	-32.812500	-65.136719
1898.838174	0.827583	9.103413	-0.002764
1899.856679	0.388116	378.125000	119.042969
1899.858681	0.700373	378.125000	119.042969
1899.862680	0.828826	378.125000	119.042969
1899.864683	0.827102	9.098122	-0.002796
1900.912700	0.770149	-30.957031	-64.843750
1900.914701	0.830425	-30.957031	-64.843750
1900.916703	0.827972	9.107694	-0.001784
1901.934719	0.683388	380.468750	123.144531
1901.936722	0.831029	380.468750	123.144531
1901.938720	0.829130	9.120428	-0.003675
1902.988788	0.462317	-30.371094	-66.894531
1902.990790	0.757561	-30.371094	-66.894531
1902.992790	0.830307	-30.371094	-66.894531
1902.994790	0.827659	9.104246	-0.002021
1904.010763	0.566122	374.609375	122.851562
1904.012764	0.810667	374.609375	122.851562
1904.014765	0.829116	374.609375	122.851562
1904.016765	0.827034	9.097377	0.042166
1905.065736	0.545118	-29.394531	-67.871094
1905.067738	0.802418	-29.394531	-67.871094
1905.069739	0.828899	-29.394531	-67.871094
1905.071738	0.826826	9.095091	-0.002867
1906.089806	0.654356	361.035156	116.992187
1906.091809	0.828801	361.035156	116.992187
1906.093809	0.828599	9.114588	-0.003577
1907.140246	0.525695	-30.468750	-70.214844
1907.142246	0.793821	-30.468750	-70.214844
1907.144247	0.829135	-30.468750	-70.214844
1907.146249	0.826935	9.096287	-0.002659
1908.166277	0.340816	368.554687	121.484375
1908.168280	0.657651	368.554687	121.484375
1908.172277	0.830267	368.554687	121.484375
1908.174278	0.828323	9.111547	-0.001992
1909.218353	0.826973	-28.515625	-66.015625
1909.220356	0.828538	-28.515625	-66.015625
1909.222354	0.826766	9.094426	0.383176
1910.246388	0.503146	373.730469	120.019531
1910.248390	0.782504	373.730469	120.019531
1910.250390	0.829883	373.730469	120.019531
1910.252390	0.827456	9.102012	-0.001846
1911.290471	0.377851	-28.906250	-66.308594
1911.292474	0.691700	-28.906250	-66.308594
1911.294473	0.831961	-28.906250	-66.308594
1911.296474	0.829704	9.126747	-0.003504
1912.324516	0.607006	387.890625	121.191406
1912.328517	0.828984	387.890625	121.191406
1912.330520	0.827047	387.890625	121.191406
1912.332519	0.825756	9.083322	0.251219
1913.367078	0.280158	-30.761719	-67.480469
1913.369079	0.600681	-30.761719	-67.480469
1913.371079	0.821221	-30.761719	-67.480469
1913.373081	0.829728	-30.761719	-67.480469
1913.377078	0.826513	9.091643	-0.002010
1914.399077	0.311404	391.796875	116.992187
1914.401077	0.629841	391.796875	116.992187
1914.403077	0.828258	391.796875	116.992187
1914.405077	0.831367	391.796875	116.992187
1914.407075	0.829231	9.121536	-0.002542
1915.447087	0.509136	-29.882812	-65.917969
1915.449089	0.785750	-29.882812	-65.917969
1915.451092	0.829941	-29.882812	-65.917969
1915.455097	0.826098	9.087080	-0.002226
1916.475123	0.336829	396.777344	117.089844
1916.477125	0.654053	396.777344	117.089844
1916.479125	0.829392	396.777344	117.089844
1916.481125	0.829206	9.121270	-0.003381
1917.525171	0.549430	-31.640625	-66.992187
1917.527174	0.804563	-31.640625	-66.992187
1917.529175	0.829283	-31.640625	-66.992187
1917.531174	0.827231	9.099540	-0.002616
1918.551248	0.414986	407.910156	123.339844
1918.553249	0.722861	407.910156	123.339844
1918.555251	0.832637	407.910156	123.339844
1918.557256	0.829795	9.127740	-0.003687
1919.603303	0.437997	-34.472656	-71.289062
1919.605303	0.740715	-34.472656	-71.289062
1919.607304	0.831809	-34.472656	-71.289062
1919.609306	0.828954	9.118496	-0.002815
1920.627283	0.394977	396.582031	116.406250
1920.629286	0.706320	396.582031	116.406250
1920.631285	0.710690	396.582031	116.406250
1920.633285	0.831247	9.143718	-0.002945
1921.679346	0.293216	-32.421875	-69.726562
1921.681348	0.613035	-32.421875	-69.726562
1921.683349	0.823945	-32.421875	-69.726562
1921.685349	0.829795	-32.421875	-69.726562
1921.687352	0.827733	9.105061	-0.001861
1922.707402	0.827465	393.261719	113.964844
1922.709405	0.828451	9.112957	-0.003302
1923.757885	0.453030	-32.812500	-70.898437
1923.759888	0.751321	-32.812500	-70.898437
1923.761888	0.830556	-32.812500	-70.898437
1923.763889	0.827751	9.105255	-0.001621
1924.781977	0.586966	394.042969	113.867187
1924.783979	0.817655	394.042969	113.867187
1924.785980	0.829769	394.042969	113.867187
1924.787979	0.827731	9.105043	0.152082
1925.836010	0.579136	-33.007812	-71.386719
1925.838012	0.814830	-33.007812	-71.386719
1925.840017	0.829044	-33.007812	-71.386719
1925.842017	0.827019	9.097209	0.111141
1926.858018	0.974526	409.570312	121.972656
1926.860020	0.760370	409.570312	121.972656
1926.862021	0.829756	409.570312	121.972656
1926.864020	0.827174	9.098919	-0.004167
1927.911007	0.248968	-34.179687	-73.535156
1927.913006	0.571271	-34.179687	-73.535156
1927.915007	0.812469	-34.179687	-73.535156
1927.917006	0.829156	-34.179687	-73.535156
1927.919007	0.827071	9.097785	-0.002304
1928.935615	0.473289	401.464844	114.843750
1928.937618	0.764846	401.464844	114.843750
1928.939617	0.830483	401.464844	114.843750
1928.941618	0.827904	9.106940	-0.002821
1929.987671	0.288812	-33.007812	-71.777344
1929.989673	0.608725	-33.007812	-71.777344
1929.991672	0.822366	-33.007812	-71.777344
1929.993673	0.828836	-33.007812	-71.777344
1929.995674	0.826936	9.096296	-0.001816
1931.015662	0.822563	402.734375	112.988281
1931.017663	0.829188	402.734375	112.988281
1931.019665	0.827272	9.099992	0.261428
1932.065692	0.508186	-31.933594	-70.605469
1932.067693	0.784976	-31.933594	-70.605469
1932.069693	0.829300	-31.933594	-70.605469
1932.071693	0.829173	9.120898	-0.001493
1933.091726	0.587063	418.457031	120.019531
1933.093728	0.817298	418.457031	120.019531
1933.097726	0.827154	418.457031	120.019531
1933.099727	0.825841	9.084252	-0.003477
1934.140325	0.346943	-33.300781	-72.558594
1934.142326	0.663430	-33.300781	-72.558594
1934.144324	0.829621	-33.300781	-72.558594
1934.146326	0.828764	9.116405	-0.002244
1935.168367	0.400893	415.234375	115.820312
1935.170368	0.711362	415.234375	115.820312
1935.172368	0.831548	415.234375	115.820312
1935.174367	0.828809	9.116901	-0.003245
1936.220396	0.829822	-31.152344	-71.289062
1936.222398	0.828616	9.114775	-0.002689
1937.250403	0.817018	418.945312	117.968750
1937.252406	0.828957	418.945312	117.968750
1937.254404	0.826942	9.096367	0.137255
1938.292455	0.397314	-30.273437	-71.484375
1938.294457	0.708209	-30.273437	-71.484375
1938.296459	0.831418	-30.273437	-71.484375
1938.298457	0.828791	9.116706	-0.003744
1939.324494	0.395292	413.769531	118.164062
1939.326494	0.706422	413.769531	118.164062
1939.328495	0.831194	413.769531	118.164062
1939.330495	0.828679	9.115465	-0.002519
1940.368534	0.301761	-33.300781	-77.734375
1940.370535	0.620721	-33.300781	-77.734375
1940.372536	0.824351	-33.300781	-77.734375
1940.374536	0.828492	-33.300781	-77.734375
1940.376537	0.826574	9.092317	-0.002812
1941.402636	0.587140	414.550781	123.730469
1941.404640	0.816988	414.550781	123.730469
1941.406641	0.828721	414.550781	123.730469
1941.408638	0.826812	9.094931	-0.002922
1942.449221	0.782475	-31.054687	-76.367187
1942.451223	0.829834	-31.054687	-76.367187
1942.453224	0.827487	9.102358	-0.001949
1943.479202	0.724197	405.566406	120.800781
1943.481203	0.830665	405.566406	120.800781
1943.483203	0.827858	9.106435	-0.002171
1944.525254	2.214503	-29.980469	-76.562500
1944.527256	0.684309	-29.980469	-76.562500
1944.529255	0.830776	-29.980469	-76.562500
1944.531256	0.828891	9.117805	-0.003350
1945.553309	0.545912	405.566406	119.433594
1945.555310	0.802770	405.566406	119.433594
1945.557311	0.828870	405.566406	119.433594
1945.559313	0.826841	9.095250	-0.003148
1946.605336	0.586460	-31.835937	-79.785156
1946.607339	0.817147	-31.835937	-79.785156
1946.609338	0.829139	-31.835937	-79.785156
1946.613336	0.825876	9.084633	0.150162
1947.631399	0.829510	417.871094	124.023437
1947.633402	0.829428	417.871094	124.023437
1947.635402	0.827561	9.103173	0.490028
1948.685381	0.791544	-34.667969	-83.593750
1948.687382	0.829306	-34.667969	-83.593750
1948.689383	0.827124	9.098361	-0.003462
1949.703377	0.309429	416.406250	116.894531
1949.705382	0.628201	416.406250	116.894531
1949.707381	0.827451	416.406250	116.894531
1949.711379	0.828463	416.406250	116.894531
1949.713380	0.827361	9.100966	-0.003428
1950.759429	0.339524	-33.398437	-80.175781
1950.761431	0.656368	-33.398437	-80.175781
1950.763428	0.828626	-33.398437	-80.175781
1950.765429	0.828199	9.110192	-0.001799
1951.781436	0.472119	429.785156	120.019531
1951.783438	0.764092	429.785156	120.019531
1951.787435	0.827819	429.785156	120.019531
1951.789438	0.826372	9.090093	-0.003025
1952.838006	0.680962	-35.058594	-80.273437
1952.840007	0.687236	-35.058594	-80.273437
1952.842007	0.827995	9.107941	-0.002104
1953.858549	0.337523	430.566406	115.332031
1953.860548	0.654679	430.566406	115.332031
1953.862550	0.829492	430.566406	115.332031
1953.868548	0.826317	9.089490	-0.002769
1954.912647	0.524468	-33.203125	-77.343750
1954.914647	0.793344	-33.203125	-77.343750
1954.916648	0.829339	-33.203125	-77.343750
1954.918647	0.827030	9.097333	-0.002195
1955.938642	0.617385	433.789062	114.160156
1955.940645	0.823659	433.789062	114.160156
1955.942645	0.828330	433.789062	114.160156
1955.944644	0.826549	9.092042	-0.004379
1956.988729	0.571066	-32.421875	-76.269531
1956.992731	0.828777	-32.421875	-76.269531
1956.996729	0.825375	-32.421875	-76.269531
1956.998731	0.824292	9.067210	-0.002887
1958.014808	0.312246	439.843750	115.429687
1958.016813	0.630620	439.843750	115.429687
1958.018809	0.828054	439.843750	115.429687
1958.020811	0.831036	439.843750	115.429687
1958.022811	0.828845	9.117300	-0.003343
1959.064864	0.608379	-32.324219	-77.148437
1959.066866	0.617438	-32.324219	-77.148437
1959.068866	0.828653	-32.324219	-77.148437
1959.070867	0.826791	9.094701	0.265724
1960.092894	0.334657	443.847656	116.796875
1960.094897	0.651744	443.847656	116.796875
1960.096896	0.828483	443.847656	116.796875
1960.098897	0.828510	9.113613	-0.002730
1961.140941	0.575767	-32.910156	-79.003906
1961.142945	0.813684	-32.910156	-79.003906
1961.144945	0.828969	-32.910156	-79.003906
1961.146945	0.826946	9.096402	0.097822
1962.171007	0.443027	444.628906	116.796875
1962.173008	0.743783	444.628906	116.796875
1962.175009	0.830201	444.628906	116.796875
1962.177007	0.827434	9.101772	-0.002145
1963.217063	0.508315	-31.738281	-78.417969
1963.219063	0.516890	-31.738281	-78.417969
1963.221063	0.829416	-31.738281	-78.417969
1963.223064	0.827125	9.098370	-0.002564
1964.249033	0.594961	447.460937	118.164062
1964.251035	0.819463	447.460937	118.164062
1964.253035	0.829120	447.460937	118.164062
1964.255034	0.827158	9.098742	0.189308
1965.293055	0.382081	-32.714844	-79.980469
1965.295058	0.695257	-32.714844	-79.980469
1965.297057	0.831921	-32.714844	-79.980469
1965.299057	0.829539	9.124930	-0.002737
1966.325095	0.479169	448.925781	118.847656
1966.327097	0.767931	448.925781	118.847656
1966.329096	0.829424	448.925781	118.847656
1966.331097	0.826913	9.096039	-0.003153
1967.373133	0.809328	-32.031250	-79.882812
1967.375136	0.828737	-32.031250	-79.882812
1967.377136	0.826756	9.094320	0.031911
1968.401145	0.316663	450.488281	117.773437
1968.405149	0.826651	450.488281	117.773437
1968.407152	0.828377	450.488281	117.773437
1968.409149	0.826530	9.091829	-0.002853
1969.447182	0.425513	-30.859375	-78.515625
1969.449184	0.731044	-30.859375	-78.515625
1969.451184	0.831281	-30.859375	-78.515625
1969.455181	0.826984	9.096828	-0.003368
1970.479186	0.517165	451.562500	116.113281
1970.481189	0.789564	451.562500	116.113281
1970.483188	0.829516	451.562500	116.113281
1970.485187	0.827243	9.099672	-0.003056
1971.525247	0.483017	-32.324219	-80.859375
1971.527247	0.770495	-32.324219	-80.859375
1971.529250	0.829571	-32.324219	-80.859375
1971.531249	0.827094	9.098033	-0.002964
1972.555281	0.526899	459.277344	118.261719
1972.559281	0.829469	459.277344	118.261719
1972.561285	0.827232	459.277344	118.261719
1972.563283	0.825899	9.084890	-0.002905
1973.605342	0.810227	-32.128906	-79.003906
1973.607344	0.828736	-32.128906	-79.003906
1973.609345	0.826790	9.094691	0.026386
1974.629767	0.254323	455.859375	114.453125
1974.631769	0.576452	455.859375	114.453125
1974.633771	0.813874	455.859375	114.453125
1974.637771	0.826797	455.859375	114.453125
1974.639773	0.825551	9.081062	-0.003722
1975.679800	0.368968	-32.910156	-80.859375
1975.681801	0.683416	-32.910156	-80.859375
1975.683803	0.689732	-32.910156	-80.859375
1975.685803	0.829273	9.122005	-0.003017
1976.705822	0.279444	458.789062	115.722656
1976.707823	0.599868	458.789062	115.722656
1976.709825	0.820639	458.789062	115.722656
1976.711823	0.829199	458.789062	115.722656
1976.713824	0.827295	9.100248	-0.003164
1977.757823	1.535639	-35.058594	-83.105469
1977.759828	0.614710	-35.058594	-83.105469
1977.761826	0.824019	-35.058594	-83.105469
1977.763826	0.829297	-35.058594	-83.105469
1977.765826	0.827448	9.101933	-0.002071
1978.783869	0.623708	466.503906	120.703125
1978.785871	0.825141	466.503906	120.703125
1978.787871	0.828737	466.503906	120.703125
1978.789870	0.826849	9.095339	-0.004026
1979.836456	0.528018	-36.035156	-86.816406
1979.838457	0.795156	-36.035156	-86.816406
1979.840457	0.829770	-36.035156	-86.816406
1979.842457	0.827441	9.101852	-0.001726
1980.859032	0.565864	456.054687	117.089844
1980.863032	0.829680	456.054687	117.089844
1980.865033	0.827534	456.054687	117.089844
1980.867033	0.826249	9.088737	0.046668
1981.915119	0.580766	-35.253906	-87.597656
1981.917121	0.815037	-35.253906	-87.597656
1981.919122	0.828621	-35.253906	-87.597656
1981.921125	0.826616	9.092778	0.122762
1982.935186	0.504431	446.386719	113.378906
1982.937187	0.782966	446.386719	113.378906
1982.939186	0.829185	446.386719	113.378906
1982.941187	0.826850	9.095348	-0.003611
1983.993647	0.767543	-35.449219	-91.601562
1983.995650	0.829711	-35.449219	-91.601562
1983.997650	0.827199	9.099185	-0.002237
1985.012163	0.432491	447.558594	116.308594
1985.014169	0.736167	447.558594	116.308594
1985.016174	0.830478	447.558594	116.308594
1985.018176	0.827717	9.104893	-0.003900
1986.068252	0.587705	-35.058594	-92.968750
1986.070253	0.816823	-35.058594	-92.968750
1986.072253	0.828252	-35.058594	-92.968750
1986.074253	0.826291	9.089197	-0.001989
1987.090846	0.547911	448.925781	119.335937
1987.092846	0.804233	448.925781	119.335937
1987.094848	0.829849	448.925781	119.335937
1987.096848	0.827713	9.104849	-0.003141
1988.142869	0.546698	-33.398437	-91.210937
1988.144869	0.803026	-33.398437	-91.210937
1988.146871	0.828990	-33.398437	-91.210937
1988.148869	0.826843	9.095268	-0.002718
1989.168834	0.474041	451.074219	121.093750
1989.170835	0.764888	451.074219	121.093750
1989.172835	0.829360	451.074219	121.093750
1989.174836	0.826870	9.095570	-0.002239
1990.216878	0.326477	-32.812500	-89.355469
1990.218880	0.644140	-32.812500	-89.355469
1990.220881	0.827767	-32.812500	-89.355469
1990.222881	0.828573	9.114305	-0.001737
1991.246929	0.353599	453.808594	120.117187
1991.248932	0.669564	453.808594	120.117187
1991.250931	0.829413	453.808594	120.117187
1991.252932	0.828191	9.110104	-0.002146
1992.292982	0.442634	-33.105469	-89.062500
1992.294984	0.743505	-33.105469	-89.062500
1992.296983	0.830201	-33.105469	-89.062500
1992.300981	0.825980	9.085777	-0.002623
1993.324972	0.346474	461.816406	120.507812
1993.326973	0.662800	461.816406	120.507812
1993.328974	0.830201	461.816406	120.507812
1993.330979	0.829315	9.122466	-0.002026
1994.371015	0.693888	-33.789062	-88.671875
1994.373017	0.830309	-33.789062	-88.671875
1994.375016	0.827942	9.107365	-0.002262
1995.403053	0.471544	469.824219	119.433594
1995.405055	0.763457	469.824219	119.433594
1995.407055	0.767013	469.824219	119.433594
1995.409056	0.827431	9.101747	-0.002741
1996.447097	0.541408	-36.621094	-92.382812
1996.449099	0.800850	-36.621094	-92.382812
1996.451100	0.828903	-36.621094	-92.382812
1996.453099	0.826849	9.095339	-0.003673
1997.480079	0.546034	480.957031	122.167969
1997.482082	0.802529	480.957031	122.167969
1997.484079	0.828646	480.957031	122.167969
1997.486080	0.826438	9.090819	-0.003291
1998.524112	0.477049	-34.863281	-89.355469
1998.526115	0.766766	-34.863281	-89.355469
1998.528115	0.829641	-34.863281	-89.355469
1998.530116	0.827137	9.098512	-0.002851
1999.558185	0.807120	484.765625	119.726562
1999.560189	0.828406	484.765625	119.726562
1999.562187	0.826450	9.090952	-0.003484
2000.600777	0.352690	-33.886719	-87.792969
2000.602781	0.668762	-33.886719	-87.792969
2000.604779	0.830418	-33.886719	-87.792969
2000.606781	0.829198	9.121181	-0.003068
2001.632886	1.591760	483.691406	115.820312
2001.634887	0.808775	483.691406	115.820312
2001.636887	0.828821	483.691406	115.820312
2001.638887	0.826790	9.094691	0.020586
2002.678967	0.452243	-33.984375	-87.695312
2002.680970	0.750111	-33.984375	-87.695312
2002.682968	0.829496	-33.984375	-87.695312
2002.684969	0.826957	9.096526	-0.002352
2003.708972	0.569089	488.671875	117.382812
2003.710973	0.811892	488.671875	117.382812
2003.712971	0.829396	488.671875	117.382812
2003.714972	0.827344	9.100789	0.057288
2004.757055	0.553601	-34.277344	-88.281250
2004.759059	0.805562	-34.277344	-88.281250
2004.761056	0.828476	-34.277344	-88.281250
2004.763057	0.826578	9.092361	-0.002394
2005.785019	0.532980	488.476562	115.820312
2005.787020	0.796937	488.476562	115.820312
2005.789021	0.828916	488.476562	115.820312
2005.791020	0.826692	9.093611	-0.003217
2006.833066	0.368807	-35.839844	-90.820312
2006.835068	0.683309	-35.839844	-90.820312
2006.837067	0.830638	-35.839844	-90.820312
2006.839069	0.828781	9.116590	-0.002254
2007.861054	0.392283	491.210937	116.210937
2007.863056	0.703781	491.210937	116.210937
2007.865055	0.830788	491.210937	116.210937
2007.867058	0.828356	9.111920	-0.003050
2008.911108	0.564426	-35.253906	-90.136719
2008.913109	0.809795	-35.253906	-90.136719
2008.915109	0.828812	-35.253906	-90.136719
2008.917110	0.826779	9.094568	0.038856
2009.939123	0.469724	489.941406	114.453125
2009.941125	0.762070	489.941406	114.453125
2009.943126	0.829715	489.941406	114.453125
2009.945125	0.827145	9.098592	-0.004131
2010.987181	0.571068	-35.058594	-90.820312
2010.989184	0.812515	-35.058594	-90.820312
2010.991183	0.829457	-35.058594	-90.820312
2010.993184	0.827386	9.101241	0.067868
2012.015251	0.300399	493.554687	115.625000
2012.017252	0.619531	493.554687	115.625000
2012.019253	0.824977	493.554687	115.625000
2012.021254	0.829437	493.554687	115.625000
2012.023254	0.827470	9.102172	-0.003872
2013.065296	0.771518	-34.570312	-90.625000
2013.067298	0.829637	-34.570312	-90.625000
2013.069299	0.827279	9.100071	-0.002730
2014.093315	0.382634	493.945312	115.527344
2014.095315	0.695934	493.945312	115.527344
2014.097316	0.830783	493.945312	115.527344
2014.099318	0.828438	9.112815	-0.002759
2015.139415	0.455195	-33.789062	-91.406250
2015.143415	0.830176	-33.789062	-91.406250
2015.145417	0.827439	-33.789062	-91.406250
2015.147417	0.826047	9.086512	-0.002596
2016.171471	0.475191	494.335937	117.089844
2016.173473	0.765533	494.335937	117.089844
2016.175471	0.829409	494.335937	117.089844
2016.177472	0.826855	9.095409	-0.002235
2017.215457	0.436585	-33.789062	-92.480469
2017.217461	0.739698	-33.789062	-92.480469
2017.219460	0.831904	-33.789062	-92.480469
2017.221460	0.828988	9.118868	-0.003227
2018.247515	0.288921	492.968750	118.359375
2018.249518	0.608831	492.968750	118.359375
2018.251518	0.616330	492.968750	118.359375
2018.253517	0.828591	492.968750	118.359375
2018.255519	0.826751	9.094257	-0.002944
2019.293564	0.642614	-33.300781	-93.359375
2019.295565	0.826946	-33.300781	-93.359375
2019.297566	0.827890	9.106789	0.446867
2020.325619	0.540102	490.820312	121.679687
2020.327621	0.800114	490.820312	121.679687
2020.329621	0.828758	490.820312	121.679687
2020.331623	0.826653	9.093185	-0.001930
2021.370212	0.537246	-35.156250	-96.972656
2021.372220	0.799112	-35.156250	-96.972656
2021.374225	0.829039	-35.156250	-96.972656
2021.378229	0.825522	9.080743	-0.001788
2022.400248	0.292321	485.449219	120.312500
2022.402252	0.611915	485.449219	120.312500
2022.404250	0.823058	485.449219	120.312500
2022.406252	0.828866	485.449219	120.312500
2022.408250	0.826963	9.096598	-0.002634
2023.448345	0.526173	-37.402344	-102.441406
2023.450346	0.793855	-37.402344	-102.441406
2023.452346	0.828957	-37.402344	-102.441406
2023.454346	0.826764	9.094399	-0.003012
2024.478390	0.671606	486.718750	122.558594
2024.480390	0.676241	486.718750	122.558594
2024.482390	0.828346	9.111805	-0.002612
2025.526422	0.565953	-33.593750	-98.144531
2025.528425	0.810258	-33.593750	-98.144531
2025.530424	0.828688	-33.593750	-98.144531
2025.532423	0.826672	9.093389	-0.003090
2026.552458	0.423651	484.667969	119.433594
2026.554458	0.729652	484.667969	119.433594
2026.556458	0.831948	484.667969	119.433594
2026.558458	0.829032	9.119347	-0.003167
2027.604509	0.546853	-36.132812	-103.515625
2027.606511	0.803147	-36.132812	-103.515625
2027.608513	0.828986	-36.132812	-103.515625
2027.610512	0.826827	9.095099	-0.002109
2028.626545	0.250833	487.402344	117.871094
2028.628546	0.572888	487.402344	117.871094
2028.630546	0.813440	487.402344	117.871094
2028.632545	0.829800	487.402344	117.871094
2028.634547	0.827751	9.105255	-0.004081
2029.682601	0.568047	-35.937500	-103.417969
2029.684605	0.810985	-35.937500	-103.417969
2029.686603	0.828584	-35.937500	-103.417969
2029.688603	0.826565	9.092219	0.059843
2030.706641	0.757418	499.316406	123.339844
2030.708640	0.829596	499.316406	123.339844
2030.710641	0.826960	9.096561	-0.003720
2031.759661	0.407332	-38.085937	-104.980469
2031.761664	0.716401	-38.085937	-104.980469
2031.765660	0.828613	-38.085937	-104.980469
2031.767660	0.827028	9.097306	-0.003069
2032.780631	0.536578	497.558594	115.527344
2032.782633	0.798944	497.558594	115.527344
2032.784632	0.829253	497.558594	115.527344
2032.786633	0.827024	9.097261	-0.003753
2033.836669	0.461919	-37.011719	-101.660156
2033.838669	0.756918	-37.011719	-101.660156
2033.840672	0.761051	-37.011719	-101.660156
2033.844668	0.825516	9.080672	-0.001525
2034.858663	0.668278	511.328125	121.972656
2034.860662	0.829036	511.328125	121.972656
2034.862664	0.827850	9.106355	0.575068
2035.912725	0.403829	-35.937500	-98.144531
2035.914725	0.713654	-35.937500	-98.144531
2035.916726	0.830865	-35.937500	-98.144531
2035.918726	0.828188	9.110068	-0.002158
2036.934747	0.455512	509.570312	115.332031
2036.936748	0.752555	509.570312	115.332031
2036.938749	0.756158	509.570312	115.332031
2036.940749	0.827205	9.099257	-0.003574
2037.990809	0.721570	-37.792969	-100.390625
2037.992810	0.831075	-37.792969	-100.390625
2037.994809	0.828353	9.111885	-0.001635
2039.012860	0.542433	514.160156	114.257812
2039.014862	0.801423	514.160156	114.257812
2039.016866	0.829164	514.160156	114.257812
2039.020865	0.825726	9.082985	-0.003352
2040.064929	0.427103	-37.207031	-98.925781
2040.066930	0.731997	-37.207031	-98.925781
2040.068929	0.830529	-37.207031	-98.925781
2040.070933	0.827813	9.105938	-0.001495
2041.088976	0.332291	518.359375	114.746094
2041.090977	0.649331	518.359375	114.746094
2041.094975	0.828629	518.359375	114.746094
2041.096978	0.826993	9.096926	-0.004130
2042.141022	0.437549	-37.500000	-99.707031
2042.143025	0.740284	-37.500000	-99.707031
2042.145023	0.831333	-37.500000	-99.707031
2042.147024	0.828422	9.112638	-0.002040
2043.167073	0.477491	522.363281	115.625000
2043.169076	0.766923	522.363281	115.625000
2043.171077	0.829179	522.363281	115.625000
2043.173075	0.826756	9.094311	-0.003146
2044.217103	0.362961	-37.011719	-99.609375
2044.219104	0.677999	-37.011719	-99.609375
2044.221104	0.830050	-37.011719	-99.609375
2044.223106	0.828327	9.111602	-0.002292
2045.243165	0.280731	523.046875	114.648437
2045.245167	0.296359	523.046875	114.648437
2045.247168	0.820036	523.046875	114.648437
2045.249169	0.823018	523.046875	114.648437
2045.251165	0.826224	9.088462	-0.004265
2046.295245	0.555338	-36.230469	-99.121094
2046.297247	0.807001	-36.230469	-99.121094
2046.299246	0.829670	-36.230469	-99.121094
2046.301246	0.827511	9.102624	-0.002290
2047.321289	0.514626	525.000000	114.648437
2047.323289	0.788392	525.000000	114.648437
2047.325289	0.829520	525.000000	114.648437
2047.327290	0.827247	9.099716	-0.004417
2048.371362	0.467922	-36.718750	-99.902344
2048.373364	0.760786	-36.718750	-99.902344
2048.375365	0.829359	-36.718750	-99.902344
2048.377366	0.826772	9.094497	-0.001872
2049.397348	0.377748	528.515625	115.625000
2049.399350	0.691137	528.515625	115.625000
2049.401350	0.831192	528.515625	115.625000
2049.403350	0.829027	9.119293	-0.003600
2050.449384	0.640135	-37.304687	-101.660156
2050.451384	0.826640	-37.304687	-101.660156
2050.453384	0.827827	9.106098	-0.001753
2051.473428	0.320939	530.468750	116.308594
2051.475433	0.638566	530.468750	116.308594
2051.477441	0.827186	530.468750	116.308594
2051.479440	0.828277	9.111052	-0.003048
2052.525487	0.408801	-38.476562	-103.222656
2052.527488	0.717700	-38.476562	-103.222656
2052.529489	0.831225	-38.476562	-103.222656
2052.531487	0.828420	9.112620	-0.001985
2053.551502	0.625535	527.636719	113.378906
2053.553502	0.825006	527.636719	113.378906
2053.555503	0.828223	527.636719	113.378906
2053.557502	0.826397	9.090367	0.337935
2054.603512	0.541098	-38.574219	-103.906250
2054.605515	0.800873	-38.574219	-103.906250
2054.607513	0.829100	-38.574219	-103.906250
2054.609516	0.828970	9.118673	-0.002095
2055.625539	0.349852	529.003906	113.964844
2055.627543	0.666034	529.003906	113.964844
2055.629541	0.829082	529.003906	113.964844
2055.631542	0.827982	9.107800	-0.003903
2056.680071	0.443168	-39.648437	-105.957031
2056.682073	0.743739	-39.648437	-105.957031
2056.684071	0.829574	-39.648437	-105.957031
2056.686073	0.826918	9.096102	-0.001785
2057.702042	0.343755	528.515625	114.648437
2057.704045	0.660241	528.515625	114.648437
2057.706046	0.828573	528.515625	114.648437
2057.708045	0.827929	9.107215	-0.003610
2058.760089	0.737039	-41.015625	-109.472656
2058.762091	0.830515	-41.015625	-109.472656
2058.764089	0.827745	9.105194	-0.001838
2059.778697	0.445245	529.980469	117.089844
2059.780699	0.745272	529.980469	117.089844
2059.782700	0.749071	529.980469	117.089844
2059.784698	0.827120	9.098317	-0.002824
2060.834787	2.319069	-40.527344	-111.230469
2060.836787	0.690733	-40.527344	-111.230469
2060.838788	0.829745	-40.527344	-111.230469
2060.840787	0.827753	9.105283	-0.000765
2061.855363	0.522364	531.835937	121.582031
2061.857367	0.536546	531.835937	121.582031
2061.859372	0.828891	531.835937	121.582031
2061.861377	0.826598	9.092583	-0.003865
2062.914357	0.740838	-41.210937	-114.843750
2062.916357	0.830575	-41.210937	-114.843750
2062.918357	0.827785	9.105638	-0.002300
2063.933321	0.585647	523.046875	115.429687
2063.935322	0.816226	523.046875	115.429687
2063.937322	0.828316	523.046875	115.429687
2063.939324	0.826358	9.089941	-0.003438
2064.989420	0.559762	-40.429687	-116.113281
2064.991422	0.807963	-40.429687	-116.113281
2064.993420	0.828514	-40.429687	-116.113281
2064.995420	0.826379	9.090172	0.016421
2066.009937	0.496688	519.824219	115.234375
2066.011939	0.778462	519.824219	115.234375
2066.013940	0.829450	519.824219	115.234375
2066.019937	0.824529	9.069824	-0.003684
2067.067985	0.815531	-38.867187	-115.625000
2067.069987	0.828530	-38.867187	-115.625000
2067.071986	0.826615	9.092769	0.127717
2068.088016	0.597915	525.097656	124.707031
2068.090018	0.819712	525.097656	124.707031
2068.092019	0.828593	525.097656	124.707031
2068.094019	0.826701	9.093708	-0.003576
2069.142935	0.777209	-39.843750	-117.480469
2069.144938	0.829459	-39.843750	-117.480469
2069.146937	0.827062	9.097688	-0.003269
2070.167530	0.773537	521.679687	119.140625
2070.169533	0.829430	521.679687	119.140625
2070.173530	0.825471	9.080175	-0.002987
2071.215501	0.364046	-38.574219	-114.746094
2071.217503	0.678795	-38.574219	-114.746094
2071.219504	0.829678	-38.574219	-114.746094
2071.221502	0.829816	9.127979	-0.002373
2072.243516	0.494185	523.339844	119.824219
2072.245520	0.776876	523.339844	119.824219
2072.247518	0.829005	523.339844	119.824219
2072.249518	0.826608	9.092690	-0.002704
2073.291504	0.379862	-39.355469	-115.722656
2073.293504	0.693185	-39.355469	-115.722656
2073.295507	0.831552	-39.355469	-115.722656
2073.297506	0.829175	9.120924	-0.002154
2074.321531	0.523182	527.832031	120.605469
2074.323533	0.792305	527.832031	120.605469
2074.325532	0.828703	527.832031	120.605469
2074.327533	0.826460	9.091059	-0.002564
2075.367568	0.424873	-37.792969	-111.914062
2075.369571	0.730539	-37.792969	-111.914062
2075.371570	0.831806	-37.792969	-111.914062
2075.373571	0.829010	9.119107	-0.002502
2076.399531	0.590157	532.324219	119.824219
2076.401533	0.817018	532.324219	119.824219
2076.403532	0.827980	532.324219	119.824219
2076.405533	0.826038	9.086414	0.167148
2077.443528	0.352589	-41.406250	-117.968750
2077.445530	0.668308	-41.406250	-117.968750
2077.447530	0.828879	-41.406250	-117.968750
2077.449531	0.827817	9.105983	-0.003050
2078.475454	0.390832	538.183594	120.996094
2078.477454	0.702548	538.183594	120.996094
2078.479454	0.831215	538.183594	120.996094
2078.481453	0.828785	9.116635	-0.002380
2079.520034	0.324307	-40.136719	-115.136719
2079.522039	0.641747	-40.136719	-115.136719
2079.524038	0.826838	-40.136719	-115.136719
2079.526036	0.827885	9.106736	-0.001978
2080.554071	0.677966	542.480469	118.261719
2080.556072	0.828876	542.480469	118.261719
2080.558073	0.827302	9.100320	-0.002236
2081.598144	0.534020	-38.964844	-112.695312
2081.600147	0.797420	-38.964844	-112.695312
2081.602153	0.828708	-38.964844	-112.695312
2081.604148	0.826585	9.092432	-0.001975
2082.630149	0.584896	546.972656	116.894531
2082.632149	0.816287	546.972656	116.894531
2082.634150	0.828699	546.972656	116.894531
2082.636149	0.826735	9.094081	0.143449
2083.676141	0.733166	-38.769531	-112.207031
2083.678143	0.829747	-38.769531	-112.207031
2083.680145	0.827170	9.098875	-0.002332
2084.706180	0.504469	550.585937	116.601562
2084.708179	0.782682	550.585937	116.601562
2084.710179	0.828941	550.585937	116.601562
2084.712180	0.826702	9.093718	-0.002838
2085.752194	0.524370	-38.964844	-112.792969
2085.754196	0.792839	-38.964844	-112.792969
2085.756196	0.828650	-38.964844	-112.792969
2085.758197	0.826443	9.090873	-0.001868
2086.782201	0.422792	553.417969	117.480469
2086.786202	0.830242	553.417969	117.480469
2086.788203	0.827496	553.417969	117.480469
2086.790205	0.825957	9.085528	-0.002951
2087.828244	0.362005	-38.769531	-112.695312
2087.830247	0.677095	-38.769531	-112.695312
2087.834245	0.829415	-38.769531	-112.695312
2087.836247	0.827708	9.104786	-0.003029
2088.858241	0.294811	554.492187	115.722656
2088.860243	0.614019	554.492187	115.722656
2088.864241	0.828143	554.492187	115.722656
2088.866243	0.826286	554.492187	115.722656
2088.868245	0.824928	9.074203	-0.002744
2089.904251	0.272809	-39.257812	-113.671875
2089.906252	0.593531	-39.257812	-113.671875
2089.908250	0.818311	-39.257812	-113.671875
2089.910252	0.828344	-39.257812	-113.671875
2089.912251	0.826446	9.090908	-0.002581
2090.936247	0.490952	556.347656	117.480469
2090.938250	0.775025	556.347656	117.480469
2090.940249	0.829046	556.347656	117.480469
2090.942248	0.826635	9.092981	-0.002502
2091.982267	0.472474	-39.355469	-114.746094
2091.984269	0.763719	-39.355469	-114.746094
2091.986270	0.829604	-39.355469	-114.746094
2091.988269	0.827061	9.097670	-0.002510
2093.012275	0.368177	555.273437	116.015625
2093.014276	0.682700	555.273437	116.015625
2093.016276	0.830746	555.273437	116.015625
2093.018276	0.828941	9.118354	-0.002843
2094.058274	0.364991	-38.964844	-114.941406
2094.060275	0.679735	-38.964844	-114.941406
2094.062278	0.829330	-38.964844	-114.941406
2094.064275	0.827704	9.104742	-0.002769
2095.090304	0.541398	556.054687	118.164062
2095.092307	0.800532	556.054687	118.164062
2095.094306	0.828402	556.054687	118.164062
2095.096306	0.826328	9.089605	-0.002318
2096.134346	0.349867	-38.574219	-115.722656
2096.136348	0.665752	-38.574219	-115.722656
2096.138347	0.829550	-38.574219	-115.722656
2096.142345	0.826843	9.095277	-0.002678
2097.170365	0.829831	554.296875	117.871094
2097.172369	0.827340	554.296875	117.871094
2097.174367	0.825730	9.083029	-0.002369
2098.212350	0.502072	-42.382812	-122.167969
2098.214353	0.781410	-42.382812	-122.167969
2098.216354	0.828948	-42.382812	-122.167969
2098.218353	0.826631	9.092937	-0.002309
2099.244433	0.586567	552.734375	122.656250
2099.246435	0.816345	552.734375	122.656250
2099.248435	0.828236	552.734375	122.656250
2099.250436	0.826291	9.089197	-0.002867
2100.288970	0.474976	-39.843750	-120.019531
2100.290970	0.765320	-39.843750	-120.019531
2100.292970	0.829204	-39.843750	-120.019531
2100.294972	0.826793	9.094719	-0.001853
2101.318980	0.285755	551.074219	121.582031
2101.320980	0.605737	551.074219	121.582031
2101.322988	0.821068	551.074219	121.582031
2101.324988	0.828131	551.074219	121.582031
2101.326988	0.826225	9.088479	-0.002167
2102.367017	0.609353	-38.183594	-118.359375
2102.369019	0.822024	-38.183594	-118.359375
2102.371019	0.828331	-38.183594	-118.359375
2102.373020	0.826532	9.091847	-0.002685
2103.395026	0.310011	549.316406	119.921875
2103.397026	0.628372	549.316406	119.921875
2103.399033	0.826282	549.316406	119.921875
2103.401033	0.829110	549.316406	119.921875
2103.403033	0.827221	9.099433	-0.002319
2104.443101	0.376273	-37.988281	-119.824219
2104.445103	0.689747	-37.988281	-119.824219
2104.447103	0.829474	-37.988281	-119.824219
2104.449103	0.827527	9.102800	-0.002344
2105.473089	0.514344	549.902344	122.167969
2105.475093	0.787719	549.902344	122.167969
2105.477094	0.828660	549.902344	122.167969
2105.479092	0.826366	9.090021	-0.002096
2106.523095	0.745077	-38.574219	-122.363281
2106.525096	0.830365	-38.574219	-122.363281
2106.527097	0.827687	9.104556	-0.002724
2107.547139	0.402848	550.097656	120.117187
2107.549140	0.712736	550.097656	120.117187
2107.551141	0.830852	550.097656	120.117187
2107.553140	0.828210	9.110308	-0.003688
2108.599145	0.419450	-39.843750	-125.878906
2108.601147	0.726157	-39.843750	-125.878906
2108.603147	0.831042	-39.843750	-125.878906
2108.605148	0.828331	9.111646	-0.001504
2109.623197	0.447330	551.757812	119.628906
2109.625200	0.746587	551.757812	119.628906
2109.627205	0.829331	551.757812	119.628906
2109.631208	0.825151	9.076666	-0.003913
2110.677217	0.438109	-40.332031	-127.441406
2110.679219	0.740161	-40.332031	-127.441406
2110.683217	0.827603	-40.332031	-127.441406
2110.685218	0.826134	9.087479	-0.002064
2111.701256	0.703330	557.421875	122.949219
2111.703257	0.830670	557.421875	122.949219
2111.705258	0.828261	9.110866	-0.003422
2112.753808	0.364668	-42.187500	-129.785156
2112.755811	0.679819	-42.187500	-129.785156
2112.757811	0.833566	-42.187500	-129.785156
2112.759810	0.833754	9.171298	-0.001491
2113.776337	0.616492	560.058594	117.773437
2113.778339	0.823323	560.058594	117.773437
2113.780338	0.828185	560.058594	117.773437
2113.782340	0.826373	9.090101	-0.003770
2114.832379	0.542980	-42.773437	-129.394531
2114.834383	0.801376	-42.773437	-129.394531
2114.836381	0.828576	-42.773437	-129.394531
2114.838381	0.826451	9.090961	-0.001007
2115.852931	0.623810	563.671875	116.308594
2115.854933	0.824023	563.671875	116.308594
2115.856933	0.827560	563.671875	116.308594
2115.858934	0.825784	9.083623	-0.003415
2116.910954	0.716125	-43.554687	-129.589844
2116.912955	0.830488	-43.554687	-129.589844
2116.914958	0.827852	9.106373	-0.001855
2117.927498	0.331484	568.945312	117.089844
2117.929500	0.648601	568.945312	117.089844
2117.931501	0.827207	568.945312	117.089844
2117.933502	0.827541	9.102952	-0.002657
2118.987531	0.736228	-43.750000	-128.417969
2118.989533	0.830552	-43.750000	-128.417969
2118.991532	0.827772	9.105494	-0.002129
2120.004494	0.364159	573.535156	116.503906
2120.006496	0.678772	573.535156	116.503906
2120.008496	0.829484	573.535156	116.503906
2120.010496	0.827819	9.106009	-0.003397
2121.062497	0.499426	-43.652344	-127.246094
2121.064500	0.780498	-43.652344	-127.246094
2121.066499	0.830380	-43.652344	-127.246094
2121.068498	0.827884	9.106727	-0.001118
2122.081460	0.369853	577.050781	118.164062
2122.083460	0.684096	577.050781	118.164062
2122.085461	0.830338	577.050781	118.164062
2122.087460	0.828446	9.112904	-0.002161
2123.141476	0.802308	-43.652344	-127.441406
2123.143477	0.828303	-43.652344	-127.441406
2123.145478	0.826283	9.089108	-0.001121
2124.158457	0.381287	579.882812	116.894531
2124.162456	0.830321	579.882812	116.894531
2124.164458	0.828145	579.882812	116.894531
2124.166457	0.826472	9.091191	-0.003032
2125.214477	0.364041	-43.164062	-125.878906
2125.216479	0.678778	-43.164062	-125.878906
2125.218480	0.829153	-43.164062	-125.878906
2125.220479	0.829256	9.121811	-0.001161
2126.238520	0.799756	581.738281	115.527344
2126.240522	0.828919	581.738281	115.527344
2126.242522	0.826785	9.094639	-0.004217
2127.292552	0.586042	-43.847656	-127.343750
2127.294555	0.815997	-43.847656	-127.343750
2127.296555	0.828064	-43.847656	-127.343750
2127.298555	0.826074	9.086813	-0.000684
2128.313143	0.512528	584.375000	117.578125
2128.315144	0.786888	584.375000	117.578125
2128.317141	0.828756	584.375000	117.578125
2128.319142	0.826478	9.091253	-0.002896
2129.369168	0.597633	-44.042969	-127.734375
2129.371169	0.819436	-44.042969	-127.734375
2129.373169	0.828325	-44.042969	-127.734375
2129.375168	0.826456	9.091014	-0.001209
2130.389768	0.484419	585.546875	116.992187
2130.391769	0.771024	585.546875	116.992187
2130.395769	0.826580	585.546875	116.992187
2130.397770	0.826536	9.091901	-0.002695
2131.445796	0.588623	-42.675781	-125.585937
2131.447799	0.816910	-42.675781	-125.585937
2131.449797	0.828109	-42.675781	-125.585937
2131.451795	0.826076	9.086831	0.165907
2132.465813	0.385525	586.425781	119.726562
2132.467816	0.698009	586.425781	119.726562
2132.469816	0.830176	586.425781	119.726562
2132.471816	0.827783	9.105610	-0.002617
2133.523821	0.732906	-44.628906	-129.394531
2133.525822	0.830615	-44.628906	-129.394531
2133.527823	0.827846	9.106301	-0.000660
2134.544416	0.588290	586.230469	115.332031
2134.546419	0.816924	586.230469	115.332031
2134.548418	0.828349	586.230469	115.332031
2134.550418	0.826303	9.089331	-0.003091
2135.600438	0.740123	-43.457031	-128.222656
2135.602441	0.830463	-43.457031	-128.222656
2135.604441	0.827718	9.104901	-0.000807
2136.620473	0.611549	585.546875	121.289062
2136.622475	0.822181	585.546875	121.289062
2136.624474	0.827999	585.546875	121.289062
2136.626474	0.826058	9.086637	-0.003746
2137.675064	0.305877	-42.187500	-127.343750
2137.677065	0.624274	-42.187500	-127.343750
2137.679066	0.824894	-42.187500	-127.343750
2137.681063	0.828361	-42.187500	-127.343750
2137.683064	0.826597	9.092565	-0.001371
