time (s)	coil I (A)	last det (V)	int current (uC)
496708.324533	0.346601	-88.085937	-92.675781
496708.326536	0.399733	-88.085937	-92.675781
496708.328534	0.398540	4.383943	-0.010870
496709.340573	0.366767	253.125000	105.859375
496709.342574	0.399970	253.125000	105.859375
496709.346575	0.398173	4.379902	-0.017268
496710.422602	0.398418	-81.835937	-87.402344
496710.424602	0.399924	4.399159	-0.013825
496711.438590	0.401667	252.636719	96.582031
496711.442592	0.400471	4.405177	-0.016935
496712.486625	0.388077	-92.382812	-95.800781
496712.488628	0.399937	-92.382812	-95.800781
496712.490626	0.398876	4.387639	-0.009780
496713.502662	0.399620	247.167969	120.800781
496713.504664	0.403851	247.167969	120.800781
496713.506664	0.402901	4.431914	-0.015260
496714.583216	0.347316	-86.132812	-92.187500
496714.585219	0.400313	-86.132812	-92.187500
496714.587219	0.399044	4.389482	-0.015629
496715.601727	0.400113	256.933594	109.179687
496715.605731	0.398530	256.933594	109.179687
496715.607733	0.398087	4.378953	-0.013396
496716.648285	0.393273	-85.839844	-93.457031
496716.650288	0.400289	-85.839844	-93.457031
496716.652288	0.399335	4.392681	-0.015277
496717.696316	0.360165	257.519531	99.414062
496717.698318	0.400043	257.519531	99.414062
496717.700318	0.398892	4.387816	-0.012522
496718.746333	0.401984	-80.468750	-93.261719
496718.748336	0.400601	-80.468750	-93.261719
496718.750336	0.399808	4.397883	-0.016848
496719.760332	0.320869	226.855469	126.367187
496719.762335	0.400656	226.855469	126.367187
496719.764334	0.399299	4.392291	-0.007313
496720.810371	0.401566	-83.691406	-105.566406
496720.812375	0.400529	4.405815	-0.017262
496721.858426	0.392877	212.011719	125.683594
496721.860428	0.399426	212.011719	125.683594
496721.864426	0.397822	4.376047	-0.011828
496722.908959	0.399550	-78.808594	-108.593750
496722.910960	0.398615	-78.808594	-108.593750
496722.912963	0.398055	4.378608	-0.014347
496723.923035	0.399845	202.148437	128.808594
496723.925037	0.401217	4.413393	-0.016595
496724.971975	0.401021	-91.406250	-123.046875
496724.973975	0.399871	4.398583	-0.006895
496726.020501	0.401442	219.531250	104.394531
496726.022503	0.400429	4.404716	-0.019198
496727.068533	0.393586	-93.554687	-115.722656
496727.070535	0.399956	-93.554687	-115.722656
496727.072536	0.398896	4.387860	-0.004655
496728.084557	0.398877	248.828125	107.421875
496728.086557	0.400281	4.403094	-0.020001
496729.162066	1.873830	-91.699219	-103.222656
496729.167303	0.401322	-91.699219	-103.222656
496729.169303	0.400280	4.403076	-0.012164
496730.181357	0.387890	271.679687	98.242187
496730.185357	0.398402	271.679687	98.242187
496730.187357	0.397789	4.375674	-0.016334
496731.230296	0.399712	-89.648437	-99.121094
496731.232298	0.401173	4.412905	-0.013850
496732.246351	0.400454	251.074219	122.460937
496732.248354	0.399705	4.396758	-0.009660
496733.294966	0.401939	-87.109375	-104.296875
496733.296966	0.401092	4.412010	-0.016740
496734.343030	0.393555	233.789062	127.148437
496734.345030	0.399843	233.789062	127.148437
496734.347030	0.398850	4.387355	-0.010615
496735.393991	0.401777	-83.105469	-112.500000
496735.395993	0.400989	4.410884	-0.021516
496736.439990	0.385546	223.437500	120.507812
496736.441989	0.400558	223.437500	120.507812
496736.443992	0.399488	4.394365	-0.012296
496737.490509	0.401446	-80.273437	-115.039062
496737.492511	0.400424	4.404663	-0.012851
496738.505100	0.401899	216.601562	125.488281
496738.507102	0.400952	4.410468	-0.016691
496739.553125	0.396147	-93.945312	-129.589844
496739.555129	0.403535	-93.945312	-129.589844
496739.557127	0.402599	4.428591	-0.007683
496740.568127	1.823535	223.437500	132.128906
496740.570128	0.401172	223.437500	132.128906
496740.572127	0.399897	4.398867	-0.018009
496741.652153	0.401684	-92.285156	-122.753906
496741.654154	0.400781	4.408589	-0.009420
496742.666731	0.403138	245.507812	101.464844
496742.668734	0.401901	4.420917	-0.013790
496743.748732	0.400629	-88.281250	-114.355469
496743.750730	0.400504	4.405540	-0.008119
496744.733279	0.401229	255.957031	112.500000
496744.735281	0.400535	4.405886	0.125284
496745.811305	0.363678	-93.847656	-117.675781
496745.813312	0.399912	-93.847656	-117.675781
496745.815310	0.398708	4.385786	-0.004616
496746.827335	1.421092	263.476562	103.027344
496746.829335	0.382204	263.476562	103.027344
496746.831338	0.398864	4.387506	-0.021131
496747.909384	0.399831	-89.257812	-114.550781
496747.911385	0.399240	4.391635	-0.008097
496748.892337	0.400190	254.882812	121.777344
496748.894340	0.400355	4.403901	-0.020103
496749.974387	0.401090	-89.160156	-117.480469
496749.976392	0.399816	4.397972	-0.005010
496750.988410	0.342244	252.246094	113.476562
496750.990412	0.400498	252.246094	113.476562
496750.994416	0.398562	4.384182	-0.020729
496752.070476	0.392570	-85.937500	-119.140625
496752.072478	0.400768	-85.937500	-119.140625
496752.074479	0.399845	4.398300	-0.008555
496753.086552	0.398954	240.332031	101.953125
496753.088554	0.400116	4.401278	-0.019340
496754.134538	0.375535	-90.332031	-129.980469
496754.136541	0.400091	-90.332031	-129.980469
496754.140539	0.398301	4.381311	-0.008669
496755.150588	0.388905	224.609375	129.296875
496755.152589	0.399855	224.609375	129.296875
496755.154591	0.398885	4.387736	-0.016343
496756.198637	0.352534	-91.796875	-133.886719
496756.200638	0.400436	-91.796875	-133.886719
496756.202639	0.399255	4.391804	-0.006959
496757.248658	0.401274	233.984375	125.097656
496757.250660	0.399801	4.397812	-0.012293
496758.298709	0.400505	-80.761719	-117.089844
496758.300710	0.399710	4.396811	-0.016836
496759.344764	0.382843	265.917969	105.859375
496759.346766	0.400537	265.917969	105.859375
496759.350764	0.398840	4.387239	-0.010955
496760.360805	0.392862	-89.648437	-116.308594
496760.362807	0.399941	-89.648437	-116.308594
496760.364805	0.398875	4.387621	-0.017920
496761.408856	0.361893	286.621094	106.054687
496761.410859	0.400355	286.621094	106.054687
496761.412859	0.399215	4.391369	-0.008834
496762.456878	0.300894	-87.695312	-106.054687
496762.458881	0.400709	-87.695312	-106.054687
496762.460882	0.399331	4.392637	-0.013781
496763.508934	0.399991	304.785156	83.984375
496763.512934	0.398058	4.378634	-0.012997
496764.554958	0.387184	-88.183594	-105.957031
496764.556960	0.399940	-88.183594	-105.957031
496764.558960	0.398889	4.387780	-0.010110
496765.571011	0.397964	295.410156	100.781250
496765.573013	0.402353	295.410156	100.781250
496765.575014	0.401362	4.414979	-0.016953
496766.651952	0.378364	-88.964844	-113.378906
496766.653953	0.399705	-88.964844	-113.378906
496766.655953	0.398673	4.385405	-0.006013
496767.634494	0.334940	268.847656	119.628906
496767.636495	0.400476	268.847656	119.628906
496767.638497	0.399145	4.390598	-0.020078
496768.717010	0.399910	-90.917969	-127.050781
496768.719013	0.399746	4.397201	-0.004221
496769.735058	0.399174	250.781250	124.023437
496769.737058	0.398389	4.382277	-0.021354
496770.815074	0.401096	-79.980469	-121.289062
496770.817076	0.399912	4.399035	0.512931
496771.829063	1.256189	242.578125	121.777344
496771.831065	0.400094	242.578125	121.777344
496771.833065	0.398958	4.388542	-0.018084
496772.878003	0.385807	-85.156250	-130.859375
496772.880003	0.399911	-85.156250	-130.859375
496772.882003	0.398863	4.387487	-0.014733
496773.892930	0.303824	229.199219	141.796875
496773.894934	0.400958	229.199219	141.796875
496773.896935	0.399608	4.395685	-0.011966
496774.945480	0.398909	-82.421875	-125.000000
496774.947482	0.398091	4.379006	0.210808
496775.990059	0.298951	269.921875	119.042969
496775.992061	0.400877	269.921875	119.042969
496775.994061	0.399378	4.393160	-0.007023
496777.040098	0.400123	-77.441406	-112.890625
496777.042101	0.399784	4.397626	-0.017226
496778.088649	0.400806	293.359375	104.882812
496778.090651	0.400966	4.410627	-0.009772
496779.104717	0.402330	-85.546875	-116.601562
496779.106720	0.401169	4.412861	-0.016798
496780.152748	0.396260	293.066406	108.984375
496780.154751	0.400846	293.066406	108.984375
496780.156750	0.399909	4.399000	-0.009154
496781.200787	0.367420	-82.812500	-111.132812
496781.202788	0.399690	-82.812500	-111.132812
496781.204790	0.398519	4.383704	-0.016123
496782.250779	0.401684	307.128906	92.578125
496782.252781	0.400380	4.404184	0.254147
496783.266800	0.400666	-93.261719	-122.460937
496783.268802	0.399359	4.392947	-0.017045
496784.313322	0.325572	294.238281	107.421875
496784.315324	0.400819	294.238281	107.421875
496784.317325	0.399558	4.395136	-0.007907
496785.363365	0.782970	-80.859375	-112.402344
496785.367365	0.398485	4.383340	-0.018552
496786.410298	0.301276	292.089844	105.078125
496786.412301	0.400436	292.089844	105.078125
496786.414299	0.399058	4.389633	-0.009356
496787.428344	0.401822	-91.992187	-130.761719
496787.430348	0.400673	4.407402	0.429964
496788.477304	0.401880	257.812500	125.585937
496788.479306	0.400830	4.409129	-0.006936
496789.523861	0.366961	-81.542969	-126.660156
496789.525863	0.400329	-81.542969	-126.660156
496789.527863	0.399233	4.391564	-0.015290
496790.571888	0.307657	266.406250	112.500000
496790.573888	0.400816	266.406250	112.500000
496790.575891	0.399443	4.393878	-0.009999
496791.623943	0.403702	-82.714844	-132.226562
496791.625944	0.402816	4.430975	-0.012237
496792.636481	0.333780	252.441406	126.660156
496792.638482	0.400757	252.441406	126.660156
496792.642481	0.398759	4.386344	-0.014905
496793.686514	0.402405	-90.625000	-142.382812
496793.688521	0.401264	4.413907	-0.002288
496794.735439	0.400956	275.878906	96.191406
496794.737441	0.399567	4.395242	-0.019719
496795.783417	0.400973	-92.871094	-138.281250
496795.785419	0.400691	4.407605	-0.002489
496796.801455	0.399739	299.023437	96.484375
496796.803454	0.398881	4.387691	-0.020808
496797.881478	0.401360	-92.285156	-127.343750
496797.883479	0.400151	4.401659	-0.006195
496798.866038	0.399362	290.917969	116.992187
496798.868041	0.398519	4.383712	-0.017885
496799.948636	0.399161	-97.558594	-124.218750
496799.950639	0.398509	4.383597	-0.005377
496800.963160	0.398937	321.679687	99.902344
496800.965160	0.398146	4.379609	0.120675
496802.043707	0.400830	-87.890625	-113.378906
496802.045708	0.399795	4.397741	-0.013331
496803.058242	0.400788	327.929687	97.753906
496803.060243	0.399348	4.392823	-0.014319
496804.106831	2.003728	-85.839844	-114.941406
496804.108834	0.401200	4.413198	0.055360
496805.154844	0.398253	329.199219	90.722656
496805.156844	0.400550	4.406045	-0.009886
496806.170868	0.400204	-90.332031	-128.027344
496806.172877	0.399876	4.398637	-0.013877
496807.219431	0.400525	296.777344	110.449219
496807.221432	0.400384	4.404220	-0.005089
496808.267482	0.387808	-79.882812	-125.683594
496808.269485	0.400154	-79.882812	-125.683594
496808.271486	0.399140	4.390536	-0.016019
496809.317496	0.400733	293.750000	103.222656
496809.319496	0.399527	4.394799	0.533285
496810.331481	0.362880	-89.648437	-145.214844
496810.333483	0.400343	-89.648437	-145.214844
496810.335481	0.399191	4.391104	-0.007644
496811.381486	0.400909	270.507812	122.070312
496811.383490	0.400840	4.409245	0.208849
496812.431551	0.401087	-88.183594	-146.386719
496812.433553	0.400286	4.403148	-0.007059
496813.480112	0.402795	277.148437	115.136719
496813.482114	0.401940	4.421342	-0.017586
496814.528122	0.401684	-87.109375	-144.335937
496814.530124	0.400691	4.407605	-0.008288
496815.542655	0.400917	272.265625	123.828125
496815.544659	0.399850	4.398353	-0.018141
496816.591196	0.400742	-91.015625	-148.632812
496816.593198	0.399978	4.399762	-0.000927
496817.607237	0.402470	266.699219	129.980469
496817.609238	0.401124	4.412364	0.040767
496818.687270	0.358456	-88.281250	-144.042969
496818.689272	0.400109	-88.281250	-144.042969
496818.691271	0.398947	4.388418	-0.005554
496819.703283	0.374453	277.539062	122.265625
496819.705282	0.400062	277.539062	122.265625
496819.707284	0.398946	4.388410	-0.021921
496820.784262	0.342723	-84.277344	-139.746094
496820.788266	0.399231	-84.277344	-139.746094
496820.790265	0.398546	4.384005	-0.006386
496821.800276	0.362458	292.480469	100.195312
496821.802278	0.400286	292.480469	100.195312
496821.804277	0.399190	4.391086	-0.017959
496822.849218	0.386548	-86.718750	-145.214844
496822.853220	0.398944	-86.718750	-145.214844
496822.855218	0.398384	4.382224	-0.006953
496823.865213	0.393629	274.414062	121.777344
496823.867215	0.399317	274.414062	121.777344
496823.869215	0.398276	4.381036	-0.014039
496824.913238	0.362635	-90.429687	-152.343750
496824.915240	0.400153	-90.429687	-152.343750
496824.917239	0.398937	4.388312	-0.002260
496825.961288	0.303942	286.328125	110.351562
496825.963289	0.400807	286.328125	110.351562
496825.965288	0.399431	4.393736	-0.013423
496827.011295	0.399940	-83.593750	-142.382812
496827.013297	0.400173	4.401906	-0.010026
496828.059305	0.385767	299.707031	103.906250
496828.061304	0.400310	299.707031	103.906250
496828.063305	0.399277	4.392043	-0.009624
496829.075329	0.393972	-89.550781	-146.289062
496829.077333	0.399429	-89.550781	-146.289062
496829.079332	0.398365	4.382020	-0.011550
496830.123907	0.394162	308.691406	108.105469
496830.127908	0.398570	308.691406	108.105469
496830.129909	0.397991	4.377899	-0.006105
496831.173931	0.399995	-77.734375	-123.437500
496831.175931	0.398947	4.388418	0.684503
496832.221969	0.402387	341.699219	93.945312
496832.223971	0.401050	4.411549	0.203017
496833.240015	0.398916	-90.332031	-130.078125
496833.242016	0.398122	4.379344	0.432384
496834.284556	0.327162	343.945312	100.292969
496834.286557	0.400268	343.945312	100.292969
496834.288558	0.398873	4.387603	-0.008974
496835.336674	0.400530	-89.257812	-123.632812
496835.338677	0.399758	4.397343	-0.011789
496836.349231	0.357633	319.824219	108.203125
496836.351232	0.361450	319.824219	108.203125
496836.353231	0.399041	4.389455	-0.005043
496837.431805	0.401170	-85.644531	-119.042969
496837.433807	0.399870	4.398574	-0.010043
496838.445782	0.286818	356.542969	90.429687
496838.447790	0.401408	356.542969	90.429687
496838.449795	0.400065	4.400711	-0.012419
496839.497815	0.399576	-98.828125	-133.984375
496839.499817	0.398645	4.385095	0.002226
496840.511831	0.401568	348.046875	93.847656
496840.513835	0.400810	4.408908	-0.014533
496841.591811	0.327599	-97.851562	-140.039062
496841.593811	0.400850	-97.851562	-140.039062
496841.595813	0.399565	4.395216	-0.000030
496842.608791	0.400243	345.312500	87.988281
496842.610793	0.400832	4.409156	-0.020645
496843.688774	0.302492	-87.988281	-138.769531
496843.690777	0.400380	-87.988281	-138.769531
496843.692776	0.398956	4.388515	-0.003336
496844.672845	0.393378	305.078125	117.773437
496844.674847	0.401197	305.078125	117.773437
496844.676847	0.400232	4.402554	-0.018693
496845.754912	0.402032	-96.582031	-157.519531
496845.756915	0.400779	4.408571	0.033601
496846.770925	0.402411	308.398437	110.644531
496846.772925	0.401147	4.412621	0.207067
496847.818969	0.400223	-100.000000	-167.968750
496847.820970	0.400226	4.402483	0.001691
496848.867926	0.402500	305.468750	104.003906
496848.869925	0.401192	4.413109	0.066665
496849.917932	0.399627	-85.253906	-151.269531
496849.919934	0.398763	4.386397	-0.008756
496850.933942	0.400052	290.136719	118.750000
496850.935944	0.399213	4.391343	-0.010853
496851.981959	0.402992	-85.546875	-151.660156
496851.983962	0.401992	4.421909	-0.006497
496853.027955	0.340696	304.980469	111.816406
496853.029956	0.400031	304.980469	111.816406
496853.031958	0.398768	4.386451	-0.007023
496854.078027	0.401762	-82.714844	-145.410156
496854.080029	0.400515	4.405664	0.028206
496855.126037	0.397499	313.671875	107.812500
496855.128039	0.399563	4.395189	-0.009822
496856.140984	0.347719	-86.035156	-147.460937
496856.142984	0.400154	-86.035156	-147.460937
496856.146984	0.398304	4.381346	-0.011874
496857.191041	0.401577	303.613281	113.085937
496857.193042	0.400295	4.403245	0.111635
496858.241088	0.401032	-84.570312	-144.335937
496858.243090	0.400130	4.401428	-0.013211
496859.287639	0.398271	328.125000	100.585937
496859.289639	0.399247	4.391715	-0.005832
496860.303687	0.402168	-88.281250	-150.000000
496860.305689	0.401427	4.415696	-0.009891
496861.352568	0.401226	290.039062	117.675781
496861.354570	0.399825	4.398078	-0.002601
496862.403114	0.400785	-86.914062	-151.660156
496862.405115	0.399897	4.398867	0.096409
496863.449675	0.402235	315.527344	105.078125
496863.451677	0.400854	4.409395	0.063174
496864.463677	0.302114	-90.039062	-159.765625
496864.465682	0.400463	-90.039062	-159.765625
496864.467680	0.399100	4.390102	-0.002941
496865.513643	0.399854	296.289062	118.359375
496865.515643	0.400126	4.401384	-0.007906
496866.561685	0.384469	-86.230469	-157.714844
496866.563686	0.400554	-86.230469	-157.714844
496866.565686	0.399487	4.394356	-0.005037
496867.610617	0.398053	321.093750	100.390625
496867.612618	0.401168	321.093750	100.390625
496867.614618	0.400285	4.403139	-0.014984
496868.658601	0.369660	-87.011719	-158.691406
496868.660603	0.400396	-87.011719	-158.691406
496868.662605	0.399257	4.391830	-0.004112
496869.676615	0.400110	309.277344	117.382812
496869.678616	0.399082	4.389907	-0.015938
496870.755190	0.309651	-85.449219	-153.027344
496870.757195	0.400046	-85.449219	-153.027344
496870.759193	0.398602	4.384625	-0.004266
496871.739231	0.393704	306.152344	121.093750
496871.743231	0.399484	306.152344	121.093750
496871.745233	0.398783	4.386611	-0.014999
496872.821260	0.401640	-98.632812	-162.890625
496872.823263	0.400322	4.403537	0.003098
496873.835829	0.360028	351.367187	95.996094
496873.837830	0.400378	351.367187	95.996094
496873.839830	0.399246	4.391706	-0.017516
496874.919907	0.400578	-95.703125	-152.148437
496874.921909	0.400523	4.405753	-0.002471
496875.899921	0.329679	335.644531	105.273437
496875.901922	0.400916	335.644531	105.273437
496875.903922	0.399591	4.395499	-0.013945
496876.981968	0.387054	-102.148437	-151.562500
496876.983970	0.399591	-102.148437	-151.562500
496876.985971	0.398473	4.383198	0.007072
496877.998492	0.402141	370.117187	88.964844
496878.000494	0.401105	4.412160	-0.014129
496879.078536	0.343857	-90.527344	-136.425781
496879.080538	0.400786	-90.527344	-136.425781
496879.082537	0.399632	4.395951	-0.004943
496880.095447	0.400417	387.207031	79.589844
496880.097448	0.400381	4.404193	-0.013410
496881.143443	0.383075	-99.902344	-143.457031
496881.145446	0.400098	-99.902344	-143.457031
496881.147445	0.399027	4.389296	0.000950
496882.161999	0.400573	375.976562	87.207031
496882.164000	0.399750	4.397245	-0.009394
496883.244040	0.399899	-86.621094	-129.882812
496883.246043	0.399231	4.391538	0.461050
496884.256008	0.354872	377.929687	86.718750
496884.258010	0.400436	377.929687	86.718750
496884.260010	0.399274	4.392016	-0.008389
496885.304054	0.290123	-93.457031	-138.964844
496885.306057	0.401259	-93.457031	-138.964844
496885.310057	0.399042	4.389464	-0.006923
496886.354078	0.399990	391.796875	78.613281
496886.356079	0.400395	4.404344	-0.009278
496887.370976	0.400190	-99.121094	-148.144531
496887.372977	0.398991	4.388906	-0.003760
496888.417562	0.356318	349.218750	97.070312
496888.419563	0.400135	349.218750	97.070312
496888.421563	0.398936	4.388294	-0.002080
496889.467599	0.402229	-86.816406	-141.210937
496889.469604	0.400850	4.409351	0.178175
496890.517622	0.400594	370.898437	87.109375
496890.519624	0.399715	4.396864	-0.006213
496891.531616	0.401267	-92.285156	-154.882812
496891.533617	0.400439	4.404831	-0.007840
496892.579708	0.394164	319.726562	107.226562
496892.581711	0.400255	319.726562	107.226562
496892.585708	0.398673	4.385405	0.001521
496893.627739	0.363202	-84.667969	-151.855469
496893.629742	0.401049	-84.667969	-151.855469
496893.631743	0.399885	4.398734	-0.013112
496894.679777	0.368502	327.050781	105.664062
496894.681780	0.398120	4.379325	0.243734
496895.694310	0.400013	-98.046875	-174.316406
496895.696313	0.398974	-98.046875	-174.316406
496895.698313	0.398322	4.381541	-0.002438
496896.741251	0.394037	291.894531	119.140625
496896.743254	0.395500	291.894531	119.140625
496896.745252	0.398730	4.386034	0.000726
496897.789266	0.361758	-89.062500	-167.382812
496897.791266	0.400188	-89.062500	-167.382812
496897.793267	0.398952	4.388472	-0.005490
496898.839284	0.400753	316.796875	110.839844
496898.841288	0.399375	4.393124	-0.007082
496899.885880	0.302482	-87.890625	-167.480469
496899.887882	0.400863	-87.890625	-167.480469
496899.889881	0.399451	4.393957	-0.006767
496900.902400	0.375555	311.425781	114.550781
496900.904401	0.400750	311.425781	114.550781
496900.906406	0.399659	4.396244	-0.005009
496901.951336	0.393072	-91.894531	-174.707031
496901.953338	0.399845	-91.894531	-174.707031
496901.955337	0.398847	4.387320	0.001670
496902.999389	0.363355	328.613281	105.859375
496903.001391	0.400520	328.613281	105.859375
496903.003391	0.399457	4.394028	-0.010136
496904.049409	0.400649	-87.695312	-168.847656
496904.051412	0.399264	4.391901	0.235039
496905.063421	0.326638	296.582031	120.019531
496905.065421	0.400268	296.582031	120.019531
496905.067421	0.398941	4.388348	-0.004633
496906.113474	0.401547	-94.531250	-178.808594
496906.117473	0.399630	4.395933	0.002147
496907.161534	0.398323	325.781250	106.250000
496907.163534	0.402615	325.781250	106.250000
496907.165534	0.401649	4.418134	-0.007636
496908.211596	0.400453	-87.304687	-168.261719
496908.213598	0.399323	-87.304687	-168.261719
496908.215597	0.398636	4.384997	-0.007604
496909.259588	0.401001	343.164062	96.679687
496909.261590	0.399655	4.396208	-0.008243
496910.273620	0.336426	-93.164062	-176.269531
496910.275621	0.400368	-93.164062	-176.269531
496910.277624	0.399074	4.389810	-0.000467
496911.325680	0.400878	321.191406	108.496094
496911.327682	0.400095	4.401047	0.038332
496912.371730	0.398238	-84.375000	-160.449219
496912.373731	0.400980	4.410778	-0.010248
496913.419747	0.372891	346.191406	97.753906
496913.421748	0.400110	346.191406	97.753906
496913.423748	0.398937	4.388312	-0.004267
496914.437819	0.405182	-89.941406	-165.234375
496914.441817	0.403519	4.438712	-0.006526
496915.486277	0.400810	307.714844	109.082031
496915.488278	0.399741	4.397148	0.002002
496916.532852	0.382783	-88.769531	-158.007812
496916.534856	0.400606	-88.769531	-158.007812
496916.536855	0.399541	4.394950	-0.012292
496917.580861	0.334113	368.554687	89.160156
496917.582866	0.400516	368.554687	89.160156
496917.584863	0.399219	4.391414	-0.002588
496918.598865	0.400703	-99.511719	-164.550781
496918.600868	0.399523	4.394755	-0.004905
496919.647451	0.400868	331.933594	98.730469
496919.649451	0.399700	4.396696	0.002465
496920.694025	0.354961	-93.945312	-153.320312
496920.696029	0.400251	-93.945312	-153.320312
496920.698026	0.400223	4.402456	-0.008140
496921.746069	0.399493	381.445312	84.863281
496921.748071	0.398720	4.385919	0.158648
496922.792594	0.401154	-88.769531	-144.335937
496922.794595	0.399845	4.398291	0.134192
496923.808611	0.400698	352.148437	91.894531
496923.812612	0.398515	4.383668	-0.001263
496924.855174	0.310281	-99.316406	-153.320312
496924.857177	0.400430	-99.316406	-153.320312
496924.859176	0.398991	4.388906	-0.000456
496925.905228	0.401341	408.496094	75.000000
496925.907231	0.400640	4.407038	-0.007347
496926.953652	0.401180	-93.359375	-146.875000
496926.955652	0.401490	4.416388	-0.004432
496927.968571	0.359421	380.468750	84.667969
496927.970575	0.399986	380.468750	84.667969
496927.972577	0.398772	4.386495	-0.003755
496929.016571	0.291961	-106.347656	-158.691406
496929.018574	0.401466	-106.347656	-158.691406
496929.020573	0.400041	4.400454	0.009061
496930.066619	0.399737	414.550781	72.363281
496930.068623	0.399786	4.397644	-0.007775
496931.119576	0.398092	-101.562500	-156.347656
496931.121579	0.397581	4.373388	0.078528
496932.132101	0.400663	364.746094	89.355469
496932.134101	0.399531	4.394844	-0.008706
496933.212145	0.399273	-93.554687	-150.292969
496933.214147	0.402402	-93.554687	-150.292969
496933.216147	0.401491	4.416406	-0.002708
496934.228184	0.399858	409.472656	76.171875
496934.230185	0.399561	4.395172	-0.012134
496935.276198	0.385418	-103.222656	-162.402344
496935.278201	0.399965	-103.222656	-162.402344
496935.280200	0.398978	4.388755	0.008718
496936.294248	0.401350	399.414062	81.054687
496936.296250	0.400470	4.405168	-0.011734
496937.374283	0.400940	-95.605469	-158.398437
496937.376283	0.399535	4.394887	0.003019
496938.358325	0.399744	317.089844	105.761719
496938.360327	0.398633	4.384962	-0.007336
496939.438344	0.400863	-103.027344	-170.410156
496939.440346	0.400346	4.403803	0.016008
496940.454834	0.400264	360.937500	97.070312
496940.456835	0.398893	360.937500	97.070312
496940.458836	0.398104	4.379139	-0.012425
496941.535785	0.401159	-100.488281	-173.242187
496941.537786	0.399827	4.398096	0.007230
496942.552337	0.400022	396.777344	83.789062
496942.554339	0.398863	4.387487	-0.016609
496943.599230	0.381948	-104.980469	-184.863281
496943.601232	0.399331	-104.980469	-184.863281
496943.603232	0.398265	4.380912	0.019616
496944.615279	0.393838	345.019531	107.031250
496944.617282	0.400634	345.019531	107.031250
496944.619283	0.399713	4.396846	-0.012429
496945.695849	0.338432	-94.335937	-179.785156
496945.697849	0.400322	-94.335937	-179.785156
496945.699849	0.399040	4.389438	0.004522
496946.711886	0.360826	361.816406	101.269531
496946.713887	0.400258	361.816406	101.269531
496946.715887	0.399130	4.390430	-0.014878
496947.761934	0.401126	-98.730469	-190.722656
496947.765934	0.399040	4.389438	0.227274
496948.775988	0.332688	300.000000	123.437500
496948.777988	0.400020	300.000000	123.437500
496948.779988	0.398723	4.385955	-0.008292
496949.859006	0.402116	-92.578125	-186.425781
496949.861009	0.400750	4.408252	0.132220
496950.875065	0.401064	348.242187	105.175781
496950.877067	0.399781	4.397591	-0.010573
496951.925087	0.401490	-92.089844	-188.378906
496951.927089	0.400706	4.407764	0.003863
496952.971091	0.392313	351.953125	103.125000
496952.973093	0.400077	351.953125	103.125000
496952.975092	0.399063	4.389695	-0.008138
496954.019154	0.361235	-86.230469	-178.808594
496954.021156	0.364673	-86.230469	-178.808594
496954.023157	0.398908	4.387993	-0.004970
496955.035190	0.378137	310.253906	116.503906
496955.037190	0.399874	310.253906	116.503906
496955.039190	0.398734	4.386079	0.000319
496956.083201	0.328145	-93.554687	-189.160156
496956.085205	0.402556	-93.554687	-189.160156
496956.087211	0.401304	4.414340	0.002596
496957.135253	0.401096	325.781250	110.839844
496957.137254	0.400348	4.403830	-0.004235
496958.181278	0.394658	-86.621094	-178.710937
496958.183279	0.399662	-86.621094	-178.710937
496958.185281	0.398686	4.385547	-0.005479
496959.197305	0.398987	281.738281	121.484375
496959.199306	0.399779	4.397573	0.006117
496960.245838	2.059604	-95.605469	-192.089844
496960.247840	0.400418	4.404601	-0.000231
496961.294792	0.402018	332.714844	108.593750
496961.296793	0.400889	4.409777	-0.000726
496962.342884	0.396798	-88.574219	-183.398437
496962.344886	0.400066	-88.574219	-183.398437
496962.348884	0.398464	4.383101	-0.004481
496963.358904	0.400045	290.820312	120.898437
496963.360906	0.400187	4.402058	0.005034
496964.406944	0.384526	-95.117187	-194.531250
496964.408945	0.386521	-95.117187	-194.531250
496964.410947	0.399030	4.389331	0.006467
496965.454989	0.344260	347.167969	105.957031
496965.456992	0.402681	347.167969	105.957031
496965.458993	0.401508	4.416583	-0.003288
496966.505044	0.401058	-90.429687	-189.746094
496966.507046	0.399685	4.396536	0.092075
496967.519088	0.308994	286.816406	124.902344
496967.521088	0.400276	286.816406	124.902344
496967.523089	0.398915	4.388064	0.002991
496968.568042	0.352604	-100.781250	-203.808594
496968.570043	0.400389	-100.781250	-203.808594
496968.572045	0.399196	4.391157	0.018274
496969.616087	0.286622	362.695312	102.929687
496969.618089	0.401516	362.695312	102.929687
496969.620090	0.400157	4.401730	-0.009200
496970.665035	0.336847	-96.972656	-198.339844
496970.667036	0.400699	-96.972656	-198.339844
496970.669037	0.399428	4.393709	0.010367
496971.683065	0.400109	310.644531	121.093750
496971.685067	0.398946	4.388410	0.639198
496972.763050	0.396048	-97.167969	-195.800781
496972.765050	0.400656	-97.167969	-195.800781
496972.767050	0.399731	4.397041	0.003970
496973.777988	0.335910	384.472656	95.117187
496973.779988	0.400210	384.472656	95.117187
496973.781989	0.398947	4.388418	-0.013226
496974.828022	0.401840	-99.707031	-194.335937
496974.832022	0.399873	4.398601	0.039076
496975.841994	0.286529	353.027344	106.835937
496975.843995	0.401078	353.027344	106.835937
496975.845995	0.399686	4.396545	-0.010828
496976.924059	0.367947	-101.757812	-191.894531
496976.926061	0.400160	-101.757812	-191.894531
496976.928062	0.398919	4.388108	0.011427
496977.940081	0.382053	384.375000	95.507812
496977.942083	0.399520	384.375000	95.507812
496977.944083	0.398437	4.382809	-0.014867
496979.022612	0.400936	-92.382812	-176.757812
496979.024615	0.399600	4.395597	0.006013
496980.005504	0.400862	387.109375	93.554687
496980.007505	0.399437	4.393806	-0.010335
496981.085523	0.361963	-104.101562	-185.546875
496981.087527	0.399925	-104.101562	-185.546875
496981.089526	0.398790	4.386690	0.016703
496982.102580	0.402184	389.648437	91.601562
496982.104581	0.400846	4.409307	0.026932
496983.183554	0.399897	-95.214844	-174.121094
496983.185554	0.399882	4.398699	0.007059
496984.169563	0.399455	358.496094	97.167969
496984.171561	0.398681	358.496094	97.167969
496984.173566	0.398194	4.380132	-0.005541
496985.249663	0.400641	-106.933594	-183.398437
496985.251665	0.399694	4.396634	0.014460
496986.263699	0.399125	402.246094	85.351562
496986.265700	0.399550	4.395047	-0.010827
496987.345721	0.401068	-99.511719	-175.976562
496987.347721	0.399656	4.396217	0.006300
496988.328278	0.400890	358.886719	95.019531
496988.330278	0.400055	4.400604	-0.002968
496989.412262	0.399530	-104.394531	-179.589844
496989.414261	0.398800	4.386796	0.017365
496990.426281	0.400059	377.539062	90.722656
496990.428282	0.398805	377.539062	90.722656
496990.430282	0.398151	4.379663	-0.009270
496991.506305	0.393435	-101.464844	-177.929687
496991.510306	0.398624	-101.464844	-177.929687
496991.512307	0.397938	4.377323	0.007629
496992.485793	1.657331	372.070312	92.773437
496992.491024	0.401673	372.070312	92.773437
496992.493024	0.400627	4.406896	-0.000083
496993.573053	0.399684	-101.074219	-177.929687
496993.575055	0.398704	4.385742	0.017686
496994.587072	0.401064	381.933594	90.917969
496994.589074	0.399943	4.399372	-0.007467
496995.669636	0.401189	-101.464844	-179.394531
496995.671637	0.400128	4.401411	0.009492
496996.650224	0.352060	354.687500	96.972656
496996.652227	0.356103	354.687500	96.972656
496996.654227	0.399389	4.393283	0.001538
496997.732290	0.396803	-104.785156	-183.984375
496997.734291	0.401430	-104.785156	-183.984375
496997.736290	0.400525	4.405771	0.023631
496998.750317	0.401083	368.066406	94.238281
496998.752315	0.400179	4.401968	-0.009238
496999.830325	0.400713	-98.242187	-180.566406
496999.832326	0.399311	4.392424	0.011751
497000.812319	0.389979	309.179687	106.933594
497000.814321	0.399929	309.179687	106.933594
497000.816321	0.398827	4.387098	0.000309
497001.895243	0.399944	-110.058594	-194.238281
497001.897246	0.398681	4.385494	0.026719
497002.909780	0.398179	397.363281	88.574219
497002.911780	0.399431	4.393744	-0.009981
497003.991827	0.400553	-104.101562	-193.847656
497003.993828	0.399133	4.390466	0.013565
497005.006354	0.376332	404.882812	87.207031
497005.008356	0.400344	404.882812	87.207031
497005.010356	0.399225	4.391476	-0.014937
497006.054420	0.328988	-109.179687	-203.417969
497006.058419	0.398960	-109.179687	-203.417969
497006.060423	0.398177	4.379946	0.030007
497007.072430	0.401074	334.472656	107.910156
497007.074433	0.399930	4.399230	0.562737
497008.152507	0.397452	-100.097656	-200.878906
497008.154507	0.401947	-100.097656	-200.878906
497008.156508	0.401072	4.411797	0.014510
497009.170561	0.401300	372.167969	100.683594
497009.172563	0.400441	4.404849	-0.014100
497010.217089	0.398827	-105.468750	-212.011719
497010.219092	0.399410	4.393505	0.025094
497011.235080	0.400169	331.152344	113.671875
497011.237081	0.399313	4.392442	-0.003319
497012.313084	0.324973	-93.847656	-203.417969
497012.315088	0.401061	-93.847656	-203.417969
497012.319086	0.399096	4.390058	0.010206
497013.331106	0.401298	334.570312	113.378906
497013.333109	0.400150	4.401649	0.566493
497014.378031	0.378532	-100.292969	-214.257812
497014.380033	0.400446	-100.292969	-214.257812
497014.382032	0.399246	4.391706	0.019170
497015.428095	0.400976	372.460937	101.953125
497015.430096	0.399688	4.396563	-0.006389
497016.476121	0.401707	-90.136719	-202.050781
497016.478122	0.400462	4.405079	0.004309
497017.492132	0.400894	330.273437	112.890625
497017.494134	0.399478	4.394258	0.159598
497018.540174	0.399147	-97.656250	-212.304687
497018.542175	0.399569	4.395260	0.012374
497019.588702	0.400119	333.886719	111.230469
497019.590705	0.401328	4.414606	-0.002615
497020.639681	0.400421	-88.378906	-199.121094
497020.641684	0.399608	4.395685	-0.000235
497021.653760	0.402053	266.796875	123.437500
497021.655764	0.400664	4.407304	0.225875
497022.701745	0.400176	-97.460937	-210.351562
497022.703747	0.400428	4.404707	0.008813
497023.750728	0.400871	335.351562	108.886719
497023.752729	0.399498	4.394480	0.079471
497024.798769	2.852515	-90.820312	-202.343750
497024.800773	0.400458	4.405035	-0.000530
497025.847334	0.398477	369.042969	100.000000
497025.849336	0.400542	4.405957	-0.000373
497026.865410	0.400243	-92.285156	-205.273437
497026.867412	0.399407	4.393478	0.012305
497027.911450	0.390339	349.902344	106.054687
497027.913453	0.399829	349.902344	106.054687
497027.915453	0.398842	4.387258	0.003749
497028.959482	1.443233	-89.746094	-204.394531
497028.961484	0.401128	-89.746094	-204.394531
497028.963483	0.400011	4.400116	0.004939
497029.975449	0.367912	280.468750	123.144531
497029.977452	0.400156	280.468750	123.144531
497029.979451	0.398986	4.388844	0.012964
497031.023440	0.303961	-99.316406	-218.164062
497031.025442	0.400853	-99.316406	-218.164062
497031.027440	0.399505	4.394560	0.021448
497032.073484	0.404379	340.722656	110.839844
497032.075487	0.403817	4.441982	-0.000634
497033.121508	0.388026	-92.968750	-210.937500
497033.123507	0.399796	-92.968750	-210.937500
497033.125508	0.398834	4.387177	0.014109
497034.137490	0.395300	322.070312	115.917969
497034.139492	0.400812	322.070312	115.917969
497034.141491	0.399920	4.399115	0.006515
497035.219531	0.402231	-94.335937	-211.621094
497035.221531	0.400900	4.409900	0.088699
497036.233588	0.309965	351.367187	109.082031
497036.235588	0.400031	351.367187	109.082031
497036.239586	0.397878	4.376658	-0.004084
497037.282557	0.354748	-103.417969	-220.410156
497037.284559	0.400372	-103.417969	-220.410156
497037.286558	0.400326	4.403590	0.025324
497038.300571	0.400735	356.835937	106.250000
497038.302573	0.399605	4.395650	-0.000721
497039.379462	0.328216	-100.390625	-213.574219
497039.381466	0.401067	-100.390625	-213.574219
497039.383464	0.399708	4.396793	0.017153
