time (s)	coil I (A)	last det (V)	int current (uC)
1314.106846	0.418974	-33.691406	-59.765625
1314.108849	0.726831	-33.691406	-59.765625
1314.110848	0.833365	-33.691406	-59.765625
1314.112849	0.830573	9.136301	-0.001041
1315.122858	0.550753	314.550781	117.285156
1315.124859	0.805796	314.550781	117.285156
1315.126859	0.830572	314.550781	117.285156
1315.128860	0.828207	9.110281	-0.002441
1316.180971	0.662857	-31.542969	-53.417969
1316.182972	0.831283	-31.542969	-53.417969
1316.184972	0.830566	9.136230	-0.001581
1317.205557	0.551518	330.175781	123.535156
1317.207559	0.806134	330.175781	123.535156
1317.209558	0.830513	330.175781	123.535156
1317.211558	0.828331	9.111646	-0.001100
1318.251578	0.492871	-25.683594	-52.343750
1318.253585	0.777531	-25.683594	-52.343750
1318.255583	0.831620	-25.683594	-52.343750
1318.257583	0.828930	9.118230	-0.002884
1319.283653	0.373652	316.699219	128.613281
1319.285655	0.688385	316.699219	128.613281
1319.287655	0.832851	316.699219	128.613281
1319.289655	0.830836	9.139198	-0.001289
1320.329706	0.818866	-27.148437	-57.714844
1320.331707	0.820365	-27.148437	-57.714844
1320.333708	0.828465	9.113117	-0.002308
1321.359788	0.821053	309.179687	129.296875
1321.361791	0.830252	309.179687	129.296875
1321.363791	0.828095	9.109049	0.204776
1322.407849	0.550293	-29.882812	-62.011719
1322.409847	0.805723	-29.882812	-62.011719
1322.411849	0.830657	-29.882812	-62.011719
1322.413851	0.828331	9.111646	-0.001700
1323.429891	0.646673	317.871094	129.589844
1323.431893	0.829218	317.871094	129.589844
1323.433892	0.829782	9.127606	-0.003514
1324.488387	0.455933	-30.761719	-61.523437
1324.490388	0.754014	-30.761719	-61.523437
1324.492387	0.832134	-30.761719	-61.523437
1324.494387	0.829343	9.122776	-0.000558
1325.506365	0.593521	327.636719	125.488281
1325.508367	0.820204	327.636719	125.488281
1325.510368	0.830715	327.636719	125.488281
1325.512367	0.828545	9.113994	0.179767
1326.564386	0.467272	-31.054687	-59.863281
1326.566387	0.761573	-31.054687	-59.863281
1326.568388	0.831559	-31.054687	-59.863281
1326.570388	0.828788	9.116671	-0.001457
1327.582430	0.699081	333.203125	121.679687
1327.584431	0.704198	333.203125	121.679687
1327.586431	0.829792	9.127713	-0.003360
1328.640986	0.515540	-31.738281	-59.082031
1328.642989	0.526281	-31.738281	-59.082031
1328.646987	0.828476	-31.738281	-59.082031
1328.648990	0.827061	9.097670	-0.000805
1329.657032	0.594909	337.011719	122.070312
1329.659034	0.820017	337.011719	122.070312
1329.661035	0.829886	337.011719	122.070312
1329.663033	0.827763	9.105398	-0.002434
1330.717655	0.455626	-31.250000	-59.277344
1330.719656	0.753972	-31.250000	-59.277344
1330.721656	0.832249	-31.250000	-59.277344
1330.723655	0.829494	9.124434	-0.001474
1331.735772	0.578898	340.625000	120.312500
1331.737773	0.815538	340.625000	120.312500
1331.739773	0.830167	340.625000	120.312500
1331.741773	0.827995	9.107941	-0.002219
1332.792356	0.429085	-31.542969	-60.742187
1332.794359	0.734520	-31.542969	-60.742187
1332.796359	0.833127	-31.542969	-60.742187
1332.798359	0.830392	9.134315	-0.001749
1333.810858	0.651035	339.550781	120.214844
1333.812861	0.829911	339.550781	120.214844
1333.814861	0.830143	9.131568	0.476711
1334.871438	0.665889	-31.640625	-63.671875
1334.873440	0.832290	-31.640625	-63.671875
1334.875440	0.831750	9.149248	-0.000399
1335.887490	0.504169	337.109375	122.656250
1335.889492	0.783550	337.109375	122.656250
1335.891491	0.830871	337.109375	122.656250
1335.893492	0.828288	9.111167	-0.002605
1336.946087	0.649640	-30.371094	-65.722656
1336.948089	0.830315	-30.371094	-65.722656
1336.950089	0.830694	9.137639	-0.002336
1337.964604	0.493089	335.644531	129.492187
1337.966606	0.777622	335.644531	129.492187
1337.968608	0.831669	335.644531	129.492187
1337.970605	0.828979	9.118772	-0.003558
1339.021650	0.810682	-30.859375	-68.261719
1339.023651	0.830196	-30.859375	-68.261719
1339.025651	0.828057	9.108624	0.029086
1340.048237	0.699238	334.667969	125.390625
1340.050238	0.831822	334.667969	125.390625
1340.052236	0.829290	9.122191	-0.000980
1341.090276	0.499713	-31.347656	-67.382812
1341.092275	0.781352	-31.347656	-67.382812
1341.094279	0.831371	-31.347656	-67.382812
1341.098275	0.827287	9.100160	-0.002899
1342.124379	0.456004	353.222656	129.101562
1342.126378	0.753803	353.222656	129.101562
1342.128380	0.831441	353.222656	129.101562
1342.130378	0.828726	9.115988	-0.001769
1343.168427	0.490367	-28.808594	-61.816406
1343.170428	0.775483	-28.808594	-61.816406
1343.172427	0.830529	-28.808594	-61.816406
1343.174428	0.827925	9.107170	-0.002598
1344.198465	0.494158	365.234375	116.992187
1344.200468	0.778075	365.234375	116.992187
1344.202468	0.831183	365.234375	116.992187
1344.204467	0.828616	9.114775	-0.001455
1345.248540	0.527194	-31.445312	-60.546875
1345.250540	0.795780	-31.445312	-60.546875
1345.252541	0.831277	-31.445312	-60.546875
1345.254540	0.828911	9.118027	-0.001336
1346.268610	0.433828	364.257812	120.898437
1346.270610	0.737868	364.257812	120.898437
1346.272610	0.832052	364.257812	120.898437
1346.276608	0.827560	9.103165	-0.002888
1347.331564	0.734385	-31.445312	-66.113281
1347.333566	0.832025	-31.445312	-66.113281
1347.335566	0.829202	9.121217	-0.000711
1348.348107	0.811453	350.292969	122.949219
1348.350107	0.831049	350.292969	122.949219
1348.352108	0.828640	9.115040	0.015815
1349.400722	0.406714	-28.808594	-68.847656
1349.402729	0.716632	-28.808594	-68.847656
1349.404732	0.832975	-28.808594	-68.847656
1349.406736	0.830241	9.132649	-0.002319
1350.429183	0.465740	350.585937	125.195312
1350.431187	0.760550	350.585937	125.195312
1350.433187	0.831882	350.585937	125.195312
1350.435185	0.829000	9.119001	-0.001722
1351.471287	0.474171	-30.957031	-68.847656
1351.473294	0.766157	-30.957031	-68.847656
1351.475292	0.832153	-30.957031	-68.847656
1351.477292	0.829379	9.123167	-0.002897
1352.508292	0.703861	375.195312	124.023437
1352.510294	0.831811	375.195312	124.023437
1352.512296	0.829305	9.122351	-0.001781
1353.551164	0.393275	-30.273437	-62.988281
1353.553166	0.705347	-30.273437	-62.988281
1353.555168	0.832869	-30.273437	-62.988281
1353.557168	0.830314	9.133455	-0.002229
1354.577151	0.465356	377.050781	113.671875
1354.579153	0.760428	377.050781	113.671875
1354.581154	0.832129	377.050781	113.671875
1354.583153	0.829322	9.122546	-0.001730
1355.633169	0.447505	-34.570312	-68.554687
1355.635169	0.747781	-34.570312	-68.554687
1355.637170	0.831437	-34.570312	-68.554687
1355.639171	0.828671	9.115385	-0.000773
1356.651215	0.636718	367.480469	118.457031
1356.653216	0.828084	367.480469	118.457031
1356.655218	0.828672	367.480469	118.457031
1356.657217	0.827829	9.106124	0.400129
1357.709816	0.442499	-30.566406	-71.679687
1357.711817	0.744673	-30.566406	-71.679687
1357.713818	0.833374	-30.566406	-71.679687
1357.715817	0.833295	9.166246	-0.001796
1358.731846	0.711479	362.207031	128.417969
1358.735849	0.829488	362.207031	128.417969
1358.737849	0.827892	9.106815	-0.003614
1359.779885	0.470308	-31.445312	-73.730469
1359.781888	0.763442	-31.445312	-73.730469
1359.783887	0.831270	-31.445312	-73.730469
1359.785887	0.828488	9.113364	-0.001681
1360.813929	0.680186	366.503906	120.898437
1360.815931	0.831395	366.503906	120.898437
1360.817931	0.829538	9.124912	-0.001437
1361.858000	0.831639	-27.246094	-66.699219
1361.860003	0.828891	9.117805	-0.002813
1362.888579	0.444303	385.839844	117.871094
1362.890582	0.745545	385.839844	117.871094
1362.892582	0.831920	385.839844	117.871094
1362.894581	0.829047	9.119515	-0.000939
1363.932561	0.425217	-28.808594	-65.332031
1363.934562	0.731359	-28.808594	-65.332031
1363.936561	0.832787	-28.808594	-65.332031
1363.938563	0.829923	9.129148	-0.001855
1364.962626	0.572556	394.628906	113.867187
1364.964629	0.813642	394.628906	113.867187
1364.966627	0.830216	394.628906	113.867187
1364.968629	0.828016	9.108180	0.063696
1366.012702	0.568413	-31.445312	-66.113281
1366.014705	0.812541	-31.445312	-66.113281
1366.016704	0.830707	-31.445312	-66.113281
1366.020703	0.827236	9.099592	0.052647
1367.036767	0.746743	399.316406	118.554687
1367.038770	0.752288	399.316406	118.554687
1367.040770	0.828850	9.117353	-0.002402
1368.090801	0.390108	-35.253906	-71.777344
1368.092804	0.702675	-35.253906	-71.777344
1368.094808	0.832598	-35.253906	-71.777344
1368.098807	0.828339	9.111734	-0.001221
1369.112842	0.814092	387.792969	110.546875
1369.114848	0.830138	387.792969	110.546875
1369.116847	0.828029	9.108314	-0.002702
1370.168844	0.567049	-34.765625	-73.535156
1370.170845	0.811646	-34.765625	-73.535156
1370.172846	0.830072	-34.765625	-73.535156
1370.174846	0.827910	9.107011	-0.000541
1371.185477	0.414420	389.843750	112.792969
1371.187478	0.427664	389.843750	112.792969
1371.189477	0.832794	389.843750	112.792969
1371.191478	0.830047	9.130513	-0.002513
1372.243493	0.260437	-34.082031	-75.097656
1372.245494	0.582604	-34.082031	-75.097656
1372.247496	0.816670	-34.082031	-75.097656
1372.249496	0.830237	-34.082031	-75.097656
1372.251494	0.827978	9.107755	-0.000564
1373.263520	0.568882	395.996094	119.042969
1373.265524	0.812208	395.996094	119.042969
1373.269521	0.827799	395.996094	119.042969
1373.273521	0.825633	9.081965	0.049340
1374.323522	0.816765	-35.449219	-77.148437
1374.325524	0.829848	-35.449219	-77.148437
1374.327524	0.827786	9.105646	0.131317
1375.340478	0.613912	391.406250	110.546875
1375.342480	0.824613	391.406250	110.546875
1375.344482	0.830263	391.406250	110.546875
1375.346480	0.828220	9.110423	-0.003617
1376.396507	0.333446	-34.765625	-76.269531
1376.398508	0.651219	-34.765625	-76.269531
1376.400509	0.831055	-34.765625	-76.269531
1376.402510	0.831541	9.146953	-0.000514
1377.415123	0.352650	398.632812	110.253906
1377.417125	0.669102	398.632812	110.253906
1377.419124	0.830947	398.632812	110.253906
1377.421126	0.829745	9.127191	-0.004081
1378.473196	0.438827	-34.179687	-74.023437
1378.475196	0.741739	-34.179687	-74.023437
1378.477196	0.832800	-34.179687	-74.023437
1378.479196	0.829923	9.129148	-0.000508
1379.495249	0.810053	402.734375	108.300781
1379.497251	0.830101	402.734375	108.300781
1379.501249	0.826622	9.092839	0.026153
1380.549268	0.586822	-34.570312	-73.437500
1380.551271	0.817990	-34.570312	-73.437500
1380.553269	0.830235	-34.570312	-73.437500
1380.555270	0.828120	9.109315	-0.001809
1381.569938	0.321293	416.503906	111.523437
1381.571942	0.639539	416.503906	111.523437
1381.573943	0.828222	416.503906	111.523437
1381.575944	0.829499	9.124487	-0.001794
1382.621996	0.409323	-30.566406	-70.605469
1382.623996	0.718517	-30.566406	-70.605469
1382.625996	0.832029	-30.566406	-70.605469
1382.627997	0.829216	9.121377	-0.001515
1383.650010	0.354884	423.144531	115.234375
1383.652012	0.671009	423.144531	115.234375
1383.654013	0.831200	423.144531	115.234375
1383.656011	0.829886	9.128741	-0.002170
1384.698052	0.801781	-27.929687	-71.386719
1384.700054	0.830375	-27.929687	-71.386719
1384.702054	0.828100	9.109102	-0.003664
1385.730125	0.535411	415.039062	117.578125
1385.732127	0.799025	415.039062	117.578125
1385.734127	0.830312	415.039062	117.578125
1385.736126	0.828006	9.108065	-0.001374
1386.772134	0.724332	-30.664062	-79.296875
1386.774138	0.832117	-30.664062	-79.296875
1386.776139	0.829279	9.122067	-0.002822
1387.806787	0.742974	400.976562	117.382812
1387.808788	0.831366	400.976562	117.382812
1387.810788	0.828521	9.113729	-0.002532
1388.849256	0.417411	-29.199219	-80.273437
1388.851258	0.725590	-29.199219	-80.273437
1388.853256	0.835919	-29.199219	-80.273437
1388.855258	0.833374	9.167115	-0.002018
1389.877258	0.485770	400.097656	116.015625
1389.879262	0.773019	400.097656	116.015625
1389.881262	0.831027	400.097656	116.015625
1389.883260	0.828436	9.112798	-0.002557
1390.931294	0.499003	-33.105469	-84.960937
1390.933295	0.780785	-33.105469	-84.960937
1390.935296	0.831175	-33.105469	-84.960937
1390.937296	0.828555	9.114100	-0.000806
1391.949346	0.323780	415.820312	114.746094
1391.953346	0.828339	415.820312	114.746094
1391.955347	0.829350	415.820312	114.746094
1391.957348	0.827560	9.103155	-0.003073
1393.011406	0.802818	-35.351562	-81.250000
1393.013408	0.830549	-35.351562	-81.250000
1393.015409	0.828344	9.111778	-0.000468
1394.027968	0.635534	436.914062	116.308594
1394.029969	0.819617	436.914062	116.308594
1394.031969	0.829644	436.914062	116.308594
1394.033970	0.827581	9.103395	-0.002977
1395.080908	0.373996	-34.765625	-77.929687
1395.082912	0.688659	-34.765625	-77.929687
1395.084910	0.832626	-34.765625	-77.929687
1395.086911	0.830669	9.137364	-0.002322
1396.108980	0.512834	440.625000	112.597656
1396.110979	0.788217	440.625000	112.597656
1396.112981	0.830997	440.625000	112.597656
1396.114979	0.828373	9.112106	-0.001798
1397.153063	0.471189	-29.199219	-76.660156
1397.155067	0.483591	-29.199219	-76.660156
1397.157074	0.830914	-29.199219	-76.660156
1397.159076	0.828269	9.110954	-0.003160
1398.191087	0.818174	431.738281	118.554687
1398.193090	0.830201	431.738281	118.554687
1398.197091	0.826829	9.095118	0.148834
1399.229707	0.623928	-29.003906	-81.250000
1399.231708	0.826136	-29.003906	-81.250000
1399.233708	0.829872	-29.003906	-81.250000
1399.235710	0.827921	9.107135	0.336196
1400.261699	0.327361	420.605469	120.898437
1400.263700	0.645555	420.605469	120.898437
1400.265701	0.828912	420.605469	120.898437
1400.269700	0.827671	9.104379	-0.001565
1401.307703	0.368209	-31.054687	-86.621094
1401.309705	0.683407	-31.054687	-86.621094
1401.311707	0.831713	-31.054687	-86.621094
1401.313706	0.829879	9.128670	-0.002412
1402.333743	0.304251	418.554687	114.355469
1402.335746	0.623609	418.554687	114.355469
1402.337745	0.826637	418.554687	114.355469
1402.339747	0.830538	418.554687	114.355469
1402.341747	0.828382	9.112205	-0.003182
1403.389854	0.587059	-33.984375	-90.332031
1403.391856	0.817861	-33.984375	-90.332031
1403.393857	0.830063	-33.984375	-90.332031
1403.395856	0.827883	9.106718	0.146157
1404.408421	0.477459	428.125000	110.546875
1404.410423	0.767742	428.125000	110.546875
1404.412422	0.830735	428.125000	110.546875
1404.416421	0.826672	9.093389	-0.003400
1405.466428	0.370660	-33.691406	-85.546875
1405.468432	0.685544	-33.691406	-85.546875
1405.470431	0.832048	-33.691406	-85.546875
1405.472432	0.830066	9.130726	-0.000371
1406.484446	0.459043	446.582031	113.867187
1406.486448	0.755703	446.582031	113.867187
1406.488448	0.831029	446.582031	113.867187
1406.490449	0.828238	9.110618	-0.003093
1407.541012	0.279271	-33.203125	-81.640625
1407.543016	0.600294	-33.203125	-81.640625
1407.545016	0.821293	-33.203125	-81.640625
1407.547020	0.829968	-33.203125	-81.640625
1407.549020	0.827984	9.107825	-0.000750
1408.565091	0.818110	458.691406	114.648437
1408.567092	0.829930	458.691406	114.648437
1408.569093	0.827834	9.106169	0.146251
1409.615168	0.328961	-35.449219	-83.496094
1409.617169	0.646984	-35.449219	-83.496094
1409.619168	0.829003	-35.449219	-83.496094
1409.621169	0.829474	9.124212	-0.002570
1410.641169	0.525199	463.085937	111.914062
1410.643171	0.794179	463.085937	111.914062
1410.645170	0.830126	463.085937	111.914062
1410.647171	0.827772	9.105494	-0.002324
1411.691758	0.641825	-33.691406	-82.421875
1411.693757	0.828045	-33.691406	-82.421875
1411.695756	0.829034	9.119373	-0.001369
1412.718297	0.397250	464.746094	110.839844
1412.720300	0.708772	464.746094	110.839844
1412.722299	0.832054	464.746094	110.839844
1412.724297	0.829367	9.123034	-0.001597
1413.766294	0.547482	-31.542969	-81.542969
1413.768296	0.804600	-31.542969	-81.542969
1413.770297	0.830783	-31.542969	-81.542969
1413.772295	0.828412	9.112532	-0.002284
1414.798380	0.809059	464.941406	109.179687
1414.800381	0.830273	464.941406	109.179687
1414.802382	0.828007	9.108074	-0.001651
1415.842427	0.544197	-30.761719	-81.738281
1415.844427	0.802808	-30.761719	-81.738281
1415.846429	0.830144	-30.761719	-81.738281
1415.848428	0.827925	9.107170	-0.001830
1416.872428	0.521825	468.554687	109.863281
1416.874431	0.792803	468.554687	109.863281
1416.876429	0.830639	468.554687	109.863281
1416.878432	0.828236	9.110591	-0.001630
1417.918492	0.448421	-30.664062	-81.933594
1417.922494	0.831229	-30.664062	-81.933594
1417.924495	0.828480	-30.664062	-81.933594
1417.926493	0.827017	9.097182	-0.003079
1418.946472	0.282139	470.312500	108.496094
1418.948470	0.602634	470.312500	108.496094
1418.950470	0.821805	470.312500	108.496094
1418.952471	0.829867	470.312500	108.496094
1418.954472	0.827832	9.106152	-0.001899
1419.994466	0.293161	-31.250000	-82.617187
1419.996469	0.613198	-31.250000	-82.617187
1419.998468	0.824209	-31.250000	-82.617187
1420.000469	0.830029	-31.250000	-82.617187
1420.002468	0.828055	9.108606	-0.002850
1421.022449	0.421922	471.582031	106.347656
1421.024450	0.728911	471.582031	106.347656
1421.026448	0.832645	471.582031	106.347656
1421.028449	0.829894	9.128839	-0.001861
1422.072511	0.329712	-32.910156	-84.375000
1422.074512	0.647794	-32.910156	-84.375000
1422.076511	0.829018	-32.910156	-84.375000
1422.078512	0.829414	9.123557	-0.001799
1423.096567	0.401181	471.191406	105.078125
1423.098569	0.712381	471.191406	105.078125
1423.100568	0.833028	471.191406	105.078125
1423.102568	0.830397	9.134369	-0.002652
1424.150587	0.284832	-36.718750	-89.843750
1424.152588	0.605248	-36.718750	-89.843750
1424.154587	0.822307	-36.718750	-89.843750
1424.156588	0.829670	-36.718750	-89.843750
1424.158588	0.827551	9.103058	-0.000541
1425.173176	0.561383	466.699219	103.906250
1425.175177	0.831447	466.699219	103.906250
1425.177179	0.828679	9.115474	-0.003464
1426.231237	0.654612	-37.988281	-94.726562
1426.233239	0.829486	-37.988281	-94.726562
1426.235240	0.829253	9.121784	-0.001218
1427.245823	0.275743	462.402344	106.152344
1427.249823	0.820778	462.402344	106.152344
1427.251823	0.830464	462.402344	106.152344
1427.253824	0.828404	9.112444	-0.003518
1428.307840	0.763548	-36.621094	-99.609375
1428.309843	0.830876	-36.621094	-99.609375
1428.311843	0.828153	9.109678	-0.000321
1429.326428	0.714307	455.078125	108.203125
1429.328429	0.831496	455.078125	108.203125
1429.330429	0.828733	9.116058	-0.003403
1430.380918	0.733900	-35.644531	-101.953125
1430.382921	0.832729	-35.644531	-101.953125
1430.384919	0.829961	9.129574	-0.000752
1431.403467	0.329872	458.593750	115.820312
1431.405472	0.647773	458.593750	115.820312
1431.407476	0.829399	458.593750	115.820312
1431.409480	0.829834	9.128174	-0.002964
1432.451528	0.433882	-32.714844	-97.656250
1432.453530	0.445011	-32.714844	-97.656250
1432.455531	0.831659	-32.714844	-97.656250
1432.457529	0.828795	9.116751	-0.001828
1433.483549	1.829369	466.601562	116.796875
1433.485548	0.620420	466.601562	116.796875
1433.487549	0.825808	466.601562	116.796875
1433.489549	0.830077	466.601562	116.796875
1433.491550	0.828157	9.109731	-0.001462
1434.527644	0.778193	-34.179687	-97.656250
1434.529645	0.830451	-34.179687	-97.656250
1434.531644	0.828026	9.108287	-0.002315
1435.561665	0.392483	479.687500	109.570312
1435.563668	0.704457	479.687500	109.570312
1435.565668	0.831838	479.687500	109.570312
1435.567667	0.829262	9.121881	-0.001943
1436.603642	0.581556	-32.714844	-92.578125
1436.605645	0.816283	-32.714844	-92.578125
1436.607644	0.829912	-32.714844	-92.578125
1436.609644	0.827805	9.105859	0.118414
1437.634239	0.327156	495.214844	108.496094
1437.636241	0.645206	495.214844	108.496094
1437.638241	0.828459	495.214844	108.496094
1437.640242	0.829163	9.120791	-0.001703
1438.682285	0.347807	-33.496094	-90.429687
1438.684287	0.664481	-33.496094	-90.429687
1438.686287	0.831014	-33.496094	-90.429687
1438.688286	0.830136	9.131497	-0.001710
1439.706343	0.356867	500.195312	111.035156
1439.708345	0.672900	500.195312	111.035156
1439.710345	0.831268	500.195312	111.035156
1439.712344	0.829934	9.129272	-0.002825
1440.765353	0.754754	-33.789062	-92.480469
1440.769353	0.828320	-33.789062	-92.480469
1440.773355	0.825817	9.083986	-0.001991
1441.781335	0.637598	489.453125	110.351562
1441.783340	0.828009	489.453125	110.351562
1441.785340	0.829538	9.124912	-0.002847
1442.841884	0.609122	-35.546875	-100.390625
1442.843887	0.823149	-35.546875	-100.390625
1442.847885	0.827613	-35.546875	-100.390625
1442.849887	0.826389	9.090279	0.000024
1443.857909	0.421213	482.226562	112.304687
1443.859912	0.433753	482.226562	112.304687
1443.861911	0.831856	482.226562	112.304687
1443.863913	0.828914	9.118053	-0.002316
1444.915954	0.681431	-34.960937	-105.175781
1444.917955	0.830852	-34.960937	-105.175781
1444.919956	0.829012	9.119134	-0.001309
1445.936515	0.381915	478.710937	114.257812
1445.938517	0.695319	478.710937	114.257812
1445.940517	0.831034	478.710937	114.257812
1445.942516	0.828685	9.115536	-0.002760
1446.986569	0.266099	-32.617187	-103.613281
1446.988573	0.587916	-32.617187	-103.613281
1446.992571	0.829975	-32.617187	-103.613281
1446.994572	0.827816	-32.617187	-103.613281
1446.996570	0.826633	9.092964	-0.001413
1448.016628	0.561508	479.101562	114.062500
1448.018630	0.809361	479.101562	114.062500
1448.020629	0.829554	479.101562	114.062500
1448.022629	0.827382	9.101197	0.008771
1449.060647	0.386344	-34.375000	-105.566406
1449.062648	0.699271	-34.375000	-105.566406
1449.064650	0.831931	-34.375000	-105.566406
1449.066647	0.829429	9.123716	-0.002257
1450.095694	0.656402	484.277344	112.011719
1450.097694	0.830690	484.277344	112.011719
1450.099696	0.830540	9.135938	0.503765
1451.135744	0.381961	-33.886719	-104.589844
1451.137746	0.695510	-33.886719	-104.589844
1451.139745	0.831729	-33.886719	-104.589844
1451.141746	0.829284	9.122121	-0.002767
1452.171728	0.454487	492.089844	111.621094
1452.173728	0.752585	492.089844	111.621094
1452.175729	0.830957	492.089844	111.621094
1452.177730	0.828236	9.110600	-0.001802
1453.211759	0.315959	-32.812500	-102.636719
1453.213781	0.634686	-32.812500	-102.636719
1453.215786	0.829313	-32.812500	-102.636719
1453.217782	0.831176	-32.812500	-102.636719
1453.219785	0.829139	9.120534	-0.001975
1454.248798	0.631156	501.660156	114.550781
1454.250800	0.827513	501.660156	114.550781
1454.252800	0.829226	501.660156	114.550781
1454.254800	0.827321	9.100533	0.374474
1455.289363	0.606219	-30.468750	-98.535156
1455.291366	0.822343	-30.468750	-98.535156
1455.293364	0.829489	-30.468750	-98.535156
1455.295365	0.827603	9.103634	0.250359
1456.323415	0.290197	506.738281	111.425781
1456.325416	0.610387	506.738281	111.425781
1456.327417	0.823321	506.738281	111.425781
1456.329416	0.824534	506.738281	111.425781
1456.331417	0.827525	9.102775	-0.000649
1457.365403	0.527667	-33.398437	-102.832031
1457.367404	0.795620	-33.398437	-102.832031
1457.369403	0.830520	-33.398437	-102.832031
1457.371405	0.828186	9.110042	-0.002894
1458.402357	0.691221	507.421875	108.496094
1458.404358	0.831175	507.421875	108.496094
1458.406358	0.828878	9.117663	-0.001896
1459.442425	0.683772	-33.691406	-103.417969
1459.444427	0.831313	-33.691406	-103.417969
1459.446428	0.829336	9.122697	-0.003007
1460.476989	0.411333	509.667969	108.984375
1460.478990	0.720273	509.667969	108.984375
1460.480992	0.832102	509.667969	108.984375
1460.484989	0.827678	9.104458	-0.001161
1461.517037	0.400114	-33.593750	-105.175781
1461.519039	0.710742	-33.593750	-105.175781
1461.521040	0.832087	-33.593750	-105.175781
1461.523039	0.829521	9.124735	-0.003380
1462.554067	0.598683	512.890625	115.136719
1462.556069	0.820632	512.890625	115.136719
1462.558068	0.829468	512.890625	115.136719
1462.560068	0.827512	9.102633	-0.000763
1463.592646	0.330703	-31.738281	-103.906250
1463.594648	0.648567	-31.738281	-103.906250
1463.596649	0.828730	-31.738281	-103.906250
1463.598649	0.829132	9.120455	-0.002517
1464.632655	0.830472	510.058594	115.332031
1464.634659	0.828429	510.058594	115.332031
1464.638656	0.825728	9.083003	-0.001943
1465.673249	0.815303	-31.542969	-105.761719
1465.675251	0.830137	-31.542969	-105.761719
1465.679249	0.826854	9.095392	0.101811
1466.703285	0.285266	507.324219	114.550781
1466.705286	0.605434	507.324219	114.550781
1466.707284	0.822311	507.324219	114.550781
1466.709286	0.829699	507.324219	114.550781
1466.711288	0.827651	9.104166	-0.001394
1467.751338	0.830915	-36.035156	-114.453125
1467.753339	0.828165	9.109820	-0.002431
1468.779426	0.608775	507.421875	115.820312
1468.783425	0.829295	507.421875	115.820312
1468.785428	0.827312	507.421875	115.820312
1468.787428	0.826135	9.087486	-0.001817
1469.825993	0.328922	-34.765625	-114.355469
1469.827995	0.646716	-34.765625	-114.355469
1469.829994	0.828824	-34.765625	-114.355469
1469.831995	0.829363	9.122998	-0.001581
1470.852016	0.410115	508.984375	110.449219
1470.854017	0.719163	508.984375	110.449219
1470.856018	0.831977	508.984375	110.449219
1470.858018	0.829314	9.122449	-0.002530
1471.908011	0.790612	-36.914062	-116.894531
1471.910013	0.831014	-36.914062	-116.894531
1471.912013	0.828530	9.113826	-0.000452
1472.928542	0.798884	514.453125	106.250000
1472.930545	0.829976	514.453125	106.250000
1472.932544	0.827750	9.105247	-0.002657
1473.986593	0.807519	-37.304687	-114.550781
1473.988597	0.829907	-37.304687	-114.550781
1473.990597	0.827802	9.105824	-0.000251
1475.000642	0.307871	530.273437	108.300781
1475.002645	0.626882	530.273437	108.300781
1475.004649	0.826784	530.273437	108.300781
1475.006649	0.829889	530.273437	108.300781
1475.008649	0.827916	9.107073	-0.002992
1476.061191	0.625121	-36.132812	-108.007812
1476.063192	0.825570	-36.132812	-108.007812
1476.065192	0.828990	-36.132812	-108.007812
1476.067193	0.827145	9.098600	-0.000615
1477.079179	0.566205	542.089844	106.835937
1477.081182	0.810872	542.089844	106.835937
1477.083182	0.829436	542.089844	106.835937
1477.085181	0.827368	9.101047	-0.002742
1478.137759	0.749467	-38.378906	-108.398437
1478.139760	0.828618	9.114800	-0.001543
1479.157825	0.414329	548.046875	105.273437
1479.159827	0.722739	548.046875	105.273437
1479.161828	0.833866	548.046875	105.273437
1479.165825	0.829460	9.124062	-0.002132
1480.205891	0.372147	-33.007812	-104.101562
1480.207893	0.686605	-33.007812	-104.101562
1480.209894	0.830748	-33.007812	-104.101562
1480.211894	0.828712	9.115829	-0.002995
1481.237907	0.447551	547.265625	107.031250
1481.239909	0.747425	547.265625	107.031250
1481.241910	0.830709	547.265625	107.031250
1481.243909	0.827966	9.107631	-0.001446
1482.281893	0.724937	-31.640625	-106.738281
1482.283897	0.831536	-31.640625	-106.738281
1482.285897	0.828754	9.116289	-0.002926
1483.315930	0.436357	540.917969	111.816406
1483.317932	0.739488	540.917969	111.816406
1483.319931	0.831744	540.917969	111.816406
1483.321932	0.828869	9.117557	-0.001102
1484.356505	0.608975	-32.031250	-111.718750
1484.358506	0.822778	-32.031250	-111.718750
1484.360507	0.829260	-32.031250	-111.718750
1484.362506	0.827282	9.100107	0.262152
1485.390525	0.328974	533.300781	113.281250
1485.392527	0.646783	533.300781	113.281250
1485.394529	0.828549	533.300781	113.281250
1485.396527	0.829060	9.119657	-0.001008
1486.434604	0.691389	-35.156250	-119.335937
1486.436606	0.831486	-35.156250	-119.335937
1486.438606	0.829309	9.122404	-0.002622
1487.466636	0.627657	531.738281	116.894531
1487.468641	0.826209	531.738281	116.894531
1487.470639	0.829125	531.738281	116.894531
1487.472639	0.827251	9.099761	-0.002669
1488.511217	0.401572	-34.960937	-121.386719
1488.513218	0.712003	-34.960937	-121.386719
1488.515217	0.832295	-34.960937	-121.386719
1488.517218	0.829552	9.125072	-0.001382
1489.539307	0.421026	532.421875	112.011719
1489.541308	0.727814	532.421875	112.011719
1489.543309	0.831742	532.421875	112.011719
1489.545309	0.828903	9.117929	-0.002425
1490.589329	0.300385	-35.156250	-122.167969
1490.591330	0.619752	-35.156250	-122.167969
1490.593330	0.824800	-35.156250	-122.167969
1490.595332	0.829119	-35.156250	-122.167969
1490.597332	0.827294	9.100230	-0.001418
1491.613384	0.454221	537.304687	112.597656
1491.615387	0.752064	537.304687	112.597656
1491.617386	0.830860	537.304687	112.597656
1491.619385	0.828091	9.109005	-0.002446
1492.669882	0.652927	-38.085937	-126.269531
1492.671884	0.828772	-38.085937	-126.269531
1492.673883	0.828796	9.116759	-0.001271
1493.688469	0.505967	538.964844	107.031250
1493.690471	0.784263	538.964844	107.031250
1493.692471	0.830189	538.964844	107.031250
1493.694472	0.827753	9.105283	-0.003078
1494.746560	0.590741	-37.500000	-124.121094
1494.748563	0.818257	-37.500000	-124.121094
1494.750563	0.829242	-37.500000	-124.121094
1494.752563	0.827131	9.098441	0.171103
1495.764631	0.525296	548.339844	109.472656
1495.766635	0.794000	548.339844	109.472656
1495.768633	0.829645	548.339844	109.472656
1495.770632	0.827336	9.100692	-0.003180
1496.823198	0.607681	-36.816406	-122.460937
1496.825201	0.822649	-36.816406	-122.460937
1496.827201	0.829483	-36.816406	-122.460937
1496.829202	0.827552	9.103067	-0.000620
1497.839173	0.307770	550.292969	105.859375
1497.841176	0.626582	550.292969	105.859375
1497.843175	0.827189	550.292969	105.859375
1497.845177	0.830678	550.292969	105.859375
1497.847176	0.828561	9.114171	-0.003253
1498.901272	0.799141	-39.160156	-125.292969
1498.903274	0.830438	-39.160156	-125.292969
1498.905274	0.828126	9.109385	0.000099
1499.917830	0.685755	555.761719	109.570312
1499.919833	0.831038	555.761719	109.570312
1499.921833	0.829065	9.119720	0.661690
1500.973931	0.337568	-37.207031	-123.535156
1500.975933	0.654897	-37.207031	-123.535156
1500.977934	0.829038	-37.207031	-123.535156
1500.979936	0.828864	9.117504	-0.001077
1501.991981	0.409286	556.933594	108.984375
1501.993984	0.718631	556.933594	108.984375
1501.995983	0.833191	556.933594	108.984375
1501.997983	0.830451	9.134962	-0.003499
1503.050862	0.418115	-36.523437	-124.414062
1503.052864	0.726107	-36.523437	-124.414062
1503.054865	0.731144	-36.523437	-124.414062
1503.056866	0.831947	9.151420	-0.000704
1504.070888	0.731615	557.421875	109.179687
1504.072888	0.831460	557.421875	109.179687
1504.074888	0.828545	9.113994	-0.003607
1505.127531	0.558934	-35.937500	-125.878906
1505.129530	0.808565	-35.937500	-125.878906
1505.131532	0.829877	-35.937500	-125.878906
1505.133530	0.827689	9.104582	-0.000952
1506.145501	0.396364	557.617187	112.109375
1506.147507	0.707560	557.617187	112.109375
1506.149508	0.831916	557.617187	112.109375
1506.151510	0.829284	9.122121	-0.003976
1507.205551	0.831103	-34.960937	-126.660156
1507.207552	0.828250	-34.960937	-126.660156
1507.209555	0.828153	9.109687	-0.000932
1508.223594	0.518992	557.421875	112.109375
1508.225597	0.790790	557.421875	112.109375
1508.227597	0.829716	557.421875	112.109375
1508.229596	0.827404	9.101445	-0.003027
1509.276179	1.478234	-37.890625	-133.398437
1509.278180	0.747006	-37.890625	-133.398437
1509.280179	0.830765	-37.890625	-133.398437
1509.282181	0.828020	9.108215	-0.001583
1510.302232	0.586083	556.054687	109.570312
1510.304232	0.817339	556.054687	109.570312
1510.306231	0.829663	556.054687	109.570312
1510.308232	0.827614	9.103749	0.140807
1511.350292	0.507203	-34.570312	-129.101562
1511.352292	0.784952	-34.570312	-129.101562
1511.354292	0.830384	-34.570312	-129.101562
1511.356293	0.827852	9.106373	-0.001067
1512.380310	0.547247	558.691406	111.523437
1512.382310	0.803950	558.691406	111.523437
1512.384311	0.829985	558.691406	111.523437
1512.386310	0.827728	9.105008	-0.001792
1513.424373	0.560874	-32.226562	-124.804687
1513.426375	0.809202	-32.226562	-124.804687
1513.428375	0.829617	-32.226562	-124.804687
1513.430375	0.827538	9.102916	0.006279
1514.458389	0.526932	564.062500	112.695312
1514.460390	0.794641	564.062500	112.695312
1514.462390	0.829575	564.062500	112.695312
1514.466390	0.825928	9.085209	-0.000840
1515.498448	0.395421	-34.667969	-127.343750
1515.500449	0.706803	-34.667969	-127.343750
1515.502450	0.832414	-34.667969	-127.343750
1515.504450	0.829832	9.128147	-0.000792
1516.537051	0.729997	571.972656	106.542969
1516.539053	0.831753	571.972656	106.542969
1516.541052	0.828950	9.118452	-0.001036
1517.577081	0.774916	-35.058594	-124.902344
1517.579083	0.830707	-35.058594	-124.902344
1517.581086	0.828130	9.109430	-0.003112
1518.613616	0.817980	582.031250	103.515625
1518.619616	0.826079	582.031250	103.515625
1518.621620	0.825102	9.076126	-0.001366
1519.651716	0.318141	-35.449219	-122.167969
1519.655727	0.828374	-35.449219	-122.167969
1519.657728	0.830009	-35.449219	-122.167969
1519.659729	0.828063	9.108694	-0.002311
1520.683719	0.394608	591.210937	102.441406
1520.685721	0.706238	591.210937	102.441406
1520.687721	0.831482	591.210937	102.441406
1520.689721	0.828920	9.118124	-0.001397
1521.731802	0.458793	-36.621094	-121.191406
1521.733802	0.755296	-36.621094	-121.191406
1521.735804	0.830839	-36.621094	-121.191406
1521.737803	0.828125	9.109377	-0.000829
1522.757822	0.593586	594.921875	104.394531
1522.759824	0.819137	594.921875	104.394531
1522.761822	0.829181	594.921875	104.394531
1522.763823	0.827294	9.100230	0.188259
1523.811890	0.593590	-40.722656	-127.148437
1523.813892	0.819307	-40.722656	-127.148437
1523.815891	0.829425	-40.722656	-127.148437
1523.817892	0.827481	9.102296	-0.000376
1524.830479	0.405180	587.988281	98.242187
1524.832481	0.714956	587.988281	98.242187
1524.834482	0.831907	587.988281	98.242187
1524.836483	0.829148	9.120624	-0.003057
1525.888517	0.383948	-40.722656	-131.250000
1525.890517	0.398450	-40.722656	-131.250000
1525.892516	0.832160	-40.722656	-131.250000
1525.894516	0.829784	9.127625	0.000246
1526.908559	0.788026	588.281250	105.859375
1526.910561	0.829982	588.281250	105.859375
1526.912562	0.827553	9.103085	-0.003225
1527.969550	0.831084	-37.988281	-132.910156
1527.971551	0.828245	9.110698	-0.000315
1528.983603	0.530738	584.375000	107.519531
1528.985606	0.796667	584.375000	107.519531
1528.987607	0.830104	584.375000	107.519531
1528.989605	0.827739	9.105131	-0.004147
1530.040488	0.427242	-37.402344	-136.425781
1530.042489	0.732809	-37.402344	-136.425781
1530.044491	0.831738	-37.402344	-136.425781
1530.046491	0.828928	9.118213	-0.000349
1531.060519	0.448728	581.542969	108.886719
1531.062520	0.748196	581.542969	108.886719
1531.064521	0.830801	581.542969	108.886719
1531.068520	0.826594	9.092529	-0.003066
1532.115072	0.462140	-39.355469	-142.773437
1532.117074	0.757588	-39.355469	-142.773437
1532.119076	0.830532	-39.355469	-142.773437
1532.121074	0.827826	9.106089	-0.000547
1533.137708	0.389565	581.445312	109.082031
1533.139710	0.702096	581.445312	109.082031
1533.141713	0.831653	581.445312	109.082031
1533.143714	0.829059	9.119648	-0.002344
1534.189757	0.453588	-36.132812	-139.257812
1534.191758	0.751876	-36.132812	-139.257812
1534.193757	0.830599	-36.132812	-139.257812
1534.195758	0.827900	9.106905	-0.000612
1535.217810	0.766999	580.566406	106.738281
1535.219814	0.831121	580.566406	106.738281
1535.221814	0.828361	9.111974	-0.002890
1536.264317	0.337543	-35.644531	-139.062500
1536.266319	0.654612	-35.644531	-139.062500
1536.268319	0.829216	-35.644531	-139.062500
1536.270320	0.828924	9.118159	-0.000594
1537.292325	0.345021	583.886719	109.960937
1537.294327	0.661752	583.886719	109.960937
1537.296326	0.830355	583.886719	109.960937
1537.298328	0.829532	9.124850	-0.002047
1538.340334	0.438899	-35.449219	-139.453125
1538.342334	0.741515	-35.449219	-139.453125
1538.344335	0.832367	-35.449219	-139.453125
1538.346336	0.829488	9.124363	-0.000769
1539.368367	0.302433	585.156250	109.960937
1539.370369	0.621666	585.156250	109.960937
1539.372368	0.825346	585.156250	109.960937
1539.374369	0.829406	585.156250	109.960937
1539.376368	0.827481	9.102286	-0.002116
1540.416420	0.467255	-35.351562	-139.941406
1540.418423	0.760856	-35.351562	-139.941406
1540.420422	0.830346	-35.351562	-139.941406
1540.422422	0.827730	9.105025	-0.001500
1541.446485	0.576018	586.914062	108.398437
1541.448488	0.814272	586.914062	108.398437
1541.450486	0.829575	586.914062	108.398437
1541.452486	0.827472	9.102190	-0.002218
1542.492524	0.438148	-35.546875	-140.722656
1542.494525	0.740930	-35.546875	-140.722656
1542.496525	0.745072	-35.546875	-140.722656
1542.498525	0.831562	9.147183	-0.001888
1543.520634	0.357904	588.574219	107.421875
1543.522636	0.673697	588.574219	107.421875
1543.524640	0.684786	588.574219	107.421875
1543.526640	0.829883	9.128714	-0.002617
1544.568710	0.339261	-37.207031	-145.019531
1544.572709	0.829926	-37.207031	-145.019531
1544.574711	0.829513	-37.207031	-145.019531
1544.576711	0.827634	9.103971	-0.000462
1545.596730	0.513057	590.625000	106.835937
1545.598732	0.787993	590.625000	106.835937
1545.600731	0.829973	590.625000	106.835937
1545.602732	0.827674	9.104414	-0.002956
1546.648818	0.774113	-37.500000	-146.191406
1546.650820	0.830508	-37.500000	-146.191406
1546.652820	0.827946	9.107401	-0.001121
1547.672793	0.637340	595.019531	107.910156
1547.674796	0.828219	595.019531	107.910156
1547.676798	0.829751	9.127261	-0.002641
1548.724908	0.569700	-37.109375	-145.996094
1548.726911	0.812162	-37.109375	-145.996094
1548.728910	0.829504	-37.109375	-145.996094
1548.730909	0.827361	9.100975	0.061054
1549.746897	0.496644	597.656250	104.003906
1549.748898	0.779018	597.656250	104.003906
1549.750899	0.830168	597.656250	104.003906
1549.752899	0.827712	9.104831	-0.003252
1550.804935	0.821279	-39.648437	-148.730469
1550.806936	0.829562	-39.648437	-148.730469
1550.808935	0.827535	9.102880	0.227848
1551.821494	0.472497	603.710937	109.765625
1551.823500	0.764440	603.710937	109.765625
1551.825503	0.830732	603.710937	109.765625
1551.827505	0.828084	9.108925	-0.003035
1552.879547	1.329757	-37.890625	-143.554687
1552.881547	0.764070	-37.890625	-143.554687
1552.883548	0.830712	-37.890625	-143.554687
1552.885549	0.828006	9.108065	-0.000301
1553.896450	0.402826	611.035156	106.054687
1553.900449	0.832402	611.035156	106.054687
1553.902451	0.829678	611.035156	106.054687
1553.904451	0.827970	9.107666	-0.002915
1554.955030	0.258463	-42.285156	-146.289062
1554.957030	0.580379	-42.285156	-146.289062
1554.959033	0.815486	-42.285156	-146.289062
1554.961032	0.829439	-42.285156	-146.289062
1554.963031	0.827364	9.101002	0.000119
1555.975006	0.783715	615.429687	98.339844
1555.977007	0.829980	615.429687	98.339844
1555.979010	0.827494	9.102429	-0.002572
1557.033111	0.687047	-41.894531	-141.992187
1557.035111	0.831165	-41.894531	-141.992187
1557.037113	0.829107	9.120180	-0.000525
1558.049674	0.404627	622.558594	98.535156
1558.051677	0.714713	622.558594	98.535156
1558.053682	0.832480	622.558594	98.535156
1558.055680	0.829795	9.127740	-0.001536
1559.107752	0.779291	-40.332031	-139.062500
1559.109754	0.830371	-40.332031	-139.062500
1559.111755	0.827812	9.105929	-0.000466
1560.132342	0.818307	627.246094	99.609375
1560.134344	0.829492	627.246094	99.609375
1560.136344	0.827459	9.102047	0.161986
1561.180340	0.691442	-38.281250	-137.792969
1561.182341	0.830716	-38.281250	-137.792969
1561.184340	0.828487	9.113356	-0.001115
1562.208308	0.492288	626.562500	101.757812
1562.210311	0.776315	626.562500	101.757812
1562.212310	0.830086	626.562500	101.757812
1562.214312	0.827645	9.104095	-0.001328
1563.252314	0.516620	-38.281250	-141.699219
1563.254316	0.789587	-38.281250	-141.699219
1563.256316	0.829718	-38.281250	-141.699219
1563.260315	0.825967	9.085634	-0.002766
1564.289241	0.794083	620.898437	105.957031
1564.291244	0.829658	620.898437	105.957031
1564.293244	0.829559	9.125152	-0.001332
1565.326231	0.386106	-35.351562	-141.210937
1565.328231	0.698786	-35.351562	-141.210937
1565.330233	0.831873	-35.351562	-141.210937
1565.332232	0.829386	9.123246	-0.002102
1566.364267	0.540319	618.750000	105.078125
1566.366269	0.800918	618.750000	105.078125
1566.368269	0.829784	618.750000	105.078125
1566.370269	0.827554	9.103093	0.000308
1567.402313	0.393677	-36.914062	-147.460937
1567.408313	0.829832	-36.914062	-147.460937
1567.410314	0.828060	-36.914062	-147.460937
1567.412314	0.826981	9.096792	-0.002223
1568.440927	0.639150	612.890625	111.132812
1568.442925	0.827361	612.890625	111.132812
1568.444926	0.828573	9.114305	-0.001199
1569.481926	0.821284	-35.449219	-147.851562
1569.483926	0.829202	-35.449219	-147.851562
1569.485926	0.827207	9.099274	0.234766
1570.515971	0.684605	613.769531	110.644531
1570.517973	0.830329	613.769531	110.644531
1570.519973	0.828302	9.111326	-0.000467
1571.556536	0.472914	-35.937500	-151.464844
1571.558536	0.764789	-35.937500	-151.464844
1571.560539	0.830792	-35.937500	-151.464844
1571.562538	0.828132	9.109447	-0.001178
1572.588508	0.377397	615.136719	109.863281
1572.590511	0.691148	615.136719	109.863281
1572.592511	0.830618	615.136719	109.863281
1572.594511	0.828455	9.113002	-0.001482
1573.634531	0.601041	-39.648437	-158.398437
1573.636532	0.820884	-39.648437	-158.398437
1573.638534	0.829284	-39.648437	-158.398437
1573.640533	0.827311	9.100417	0.222585
1574.666564	0.758090	616.113281	111.816406
1574.668566	0.830850	616.113281	111.816406
1574.670565	0.827955	9.107507	-0.001938
1575.711147	0.507712	-37.695312	-156.640625
1575.713150	0.784946	-37.695312	-156.640625
1575.715150	0.829739	-37.695312	-156.640625
1575.717149	0.827413	9.101542	-0.000783
1576.739170	0.396268	620.800781	107.031250
1576.741171	0.707676	620.800781	107.031250
1576.743172	0.832055	620.800781	107.031250
1576.745171	0.829412	9.123529	-0.001934
1577.787231	0.288507	-37.792969	-157.226562
1577.789232	0.608359	-37.792969	-157.226562
1577.791231	0.822670	-37.792969	-157.226562
1577.793233	0.829301	-37.792969	-157.226562
1577.795232	0.827264	9.099903	-0.000475
1578.815251	0.487052	622.460937	106.347656
1578.817254	0.773442	622.460937	106.347656
1578.819254	0.830678	622.460937	106.347656
1578.821252	0.828064	9.108704	-0.001979
1579.865326	0.579799	-38.183594	-159.277344
1579.867326	0.815152	-38.183594	-159.277344
1579.869328	0.829212	-38.183594	-159.277344
1579.871328	0.827178	9.098955	0.106649
1580.891307	0.407898	623.730469	107.128906
1580.893309	0.717314	623.730469	107.128906
1580.895309	0.831741	623.730469	107.128906
1580.897307	0.829098	9.120074	-0.001936
1581.941370	0.560873	-38.183594	-160.351562
1581.943373	0.809003	-38.183594	-160.351562
1581.945380	0.829381	-38.183594	-160.351562
1581.947380	0.827288	9.100169	0.006815
1582.967413	0.481692	625.000000	105.175781
1582.969413	0.770250	625.000000	105.175781
1582.971413	0.830444	625.000000	105.175781
1582.973414	0.827838	9.106222	-0.003121
1584.017455	0.428471	-37.695312	-160.058594
1584.019456	0.831208	-37.695312	-160.058594
1584.021455	0.828493	9.113418	-0.000444
1585.043533	0.267170	625.878906	109.082031
1585.045537	0.283465	625.878906	109.082031
1585.047540	0.817863	625.878906	109.082031
1585.049538	0.829526	625.878906	109.082031
1585.051536	0.827444	9.101888	-0.001856
1586.091599	0.516041	-37.011719	-159.277344
1586.093601	0.789401	-37.011719	-159.277344
1586.095600	0.829966	-37.011719	-159.277344
1586.097600	0.827626	9.103882	-0.000106
1587.121622	0.477536	628.027344	107.421875
1587.123622	0.767559	628.027344	107.421875
1587.125624	0.830373	628.027344	107.421875
1587.127625	0.827788	9.105663	-0.001325
1588.165657	1.447617	-36.035156	-157.421875
1588.167658	0.698616	-36.035156	-157.421875
1588.169657	0.832535	-36.035156	-157.421875
1588.171657	0.830202	9.132224	-0.001888
1589.198149	0.307954	628.417969	108.300781
1589.200152	0.626998	628.417969	108.300781
1589.202151	0.826856	628.417969	108.300781
1589.204152	0.830009	628.417969	108.300781
1589.208149	0.826975	9.096730	-0.000852
1590.242133	0.634937	-39.257812	-162.207031
1590.246135	0.828501	-39.257812	-162.207031
1590.248137	0.826793	-39.257812	-162.207031
1590.250136	0.825552	9.081071	0.392232
1591.276074	0.368843	626.367187	111.132812
1591.278075	0.683619	626.367187	111.132812
1591.280076	0.832090	626.367187	111.132812
1591.282074	0.830103	9.131134	-0.000968
1592.316085	0.411760	-36.523437	-156.933594
1592.318086	0.720188	-36.523437	-156.933594
1592.320086	0.831571	-36.523437	-156.933594
1592.322087	0.828763	9.116396	-0.000964
1593.354137	0.568220	630.957031	108.007812
1593.356138	0.811698	630.957031	108.007812
1593.358139	0.829752	630.957031	108.007812
1593.360138	0.827688	9.104565	0.051430
1594.395110	0.829779	-35.839844	-154.296875
1594.397110	0.828799	-35.839844	-154.296875
1594.399111	0.827108	9.098184	-0.001934
1595.431115	0.655740	638.574219	104.101562
1595.433117	0.828852	638.574219	104.101562
1595.435115	0.828580	9.114375	0.507580
1596.469628	0.624942	-36.523437	-152.734375
1596.471630	0.825867	-36.523437	-152.734375
1596.473633	0.829210	-36.523437	-152.734375
1596.475630	0.827408	9.101489	-0.000930
1597.505613	0.596889	643.750000	102.441406
1597.507613	0.819637	643.750000	102.441406
1597.509616	0.821055	643.750000	102.441406
1597.511615	0.826845	9.095295	-0.000014
1598.548174	0.759059	-36.230469	-150.292969
1598.550176	0.830575	-36.230469	-150.292969
1598.552176	0.827906	9.106966	-0.002640
1599.580587	0.724822	650.000000	100.781250
1599.582586	0.831333	650.000000	100.781250
1599.584590	0.828462	9.113081	-0.001178
1600.625150	0.584128	-39.355469	-152.343750
1600.627151	0.817034	-39.355469	-152.343750
1600.629153	0.829903	-39.355469	-152.343750
1600.631151	0.827856	9.106417	0.130023
1601.655197	0.823455	656.250000	95.312500
1601.657196	0.828549	656.250000	95.312500
1601.659196	0.826681	9.093487	0.294221
1602.703203	0.418119	-40.039062	-153.027344
1602.705206	0.726023	-40.039062	-153.027344
1602.707205	0.834943	-40.039062	-153.027344
1602.709205	0.832476	9.157233	0.000109
1603.725252	0.371459	654.394531	99.902344
1603.727255	0.685763	654.394531	99.902344
1603.729254	0.831113	654.394531	99.902344
1603.731254	0.829026	9.119286	-0.001453
1604.783841	0.783812	-44.238281	-160.839844
1604.785840	0.829658	-44.238281	-160.839844
1604.787842	0.827298	9.100275	0.000106
1605.799882	0.370593	656.152344	95.996094
1605.801885	0.684955	656.152344	95.996094
1605.803885	0.830901	656.152344	95.996094
1605.805884	0.828919	9.118106	-0.002433
1606.857874	0.299483	-45.214844	-165.917969
1606.859876	0.618872	-45.214844	-165.917969
1606.861876	0.825161	-45.214844	-165.917969
1606.863875	0.829831	-45.214844	-165.917969
1606.867875	0.826678	9.093460	0.000423
1607.875841	0.422377	650.195312	102.832031
1607.877843	0.728491	650.195312	102.832031
1607.879842	0.831216	650.195312	102.832031
1607.881843	0.828408	9.112488	-0.003116
1608.935881	0.552140	-41.601562	-165.429687
1608.937883	0.805691	-41.601562	-165.429687
1608.939883	0.829496	-41.601562	-165.429687
1608.941883	0.827405	9.101454	0.001496
1609.953855	0.690996	648.828125	104.199219
1609.955857	0.698214	648.828125	104.199219
1609.957856	0.828877	9.117645	0.699255
1611.009840	0.302330	-41.601562	-170.019531
1611.011841	0.621543	-41.601562	-170.019531
1611.013842	0.824592	-41.601562	-170.019531
1611.015842	0.828568	-41.601562	-170.019531
1611.017841	0.826677	9.093451	0.001948
1612.029876	0.570583	649.804687	104.003906
1612.031878	0.580133	649.804687	104.003906
1612.033877	0.828619	649.804687	104.003906
1612.035877	0.826526	9.091785	-0.002391
1613.086485	0.486657	-40.234375	-170.898437
1613.088487	0.773191	-40.234375	-170.898437
1613.090489	0.830540	-40.234375	-170.898437
1613.092488	0.828038	9.108419	0.001079
1614.106478	0.540254	648.144531	106.054687
1614.108478	0.800699	648.144531	106.054687
1614.110478	0.829661	648.144531	106.054687
1614.112480	0.827434	9.101772	-0.003173
1615.161523	0.448627	-39.941406	-172.851562
1615.163523	0.748094	-39.941406	-172.851562
1615.165523	0.830697	-39.941406	-172.851562
1615.167525	0.827921	9.107135	0.000172
1616.183546	0.523557	651.953125	101.953125
1616.185548	0.793262	651.953125	101.953125
1616.187549	0.830024	651.953125	101.953125
1616.189548	0.827723	9.104955	-0.001945
1617.237580	0.476016	-41.796875	-177.050781
1617.239581	0.766676	-41.796875	-177.050781
1617.241580	0.830863	-41.796875	-177.050781
1617.243582	0.828097	9.109067	0.000787
1618.259626	0.569886	646.972656	107.714844
1618.261626	0.812063	646.972656	107.714844
1618.263627	0.829211	646.972656	107.714844
1618.265627	0.827172	9.098892	0.063846
1619.315703	0.774393	-39.062500	-174.218750
1619.317706	0.830079	-39.062500	-174.218750
1619.319705	0.827629	9.103917	-0.000191
1620.335755	0.505182	646.875000	108.496094
1620.337758	0.783495	646.875000	108.496094
1620.339758	0.829619	646.875000	108.496094
1620.343755	0.825788	9.083668	-0.003086
1621.391779	0.778066	-42.968750	-180.957031
1621.393781	0.829698	-42.968750	-180.957031
1621.395781	0.827268	9.099947	0.000039
1622.410749	0.423187	655.273437	102.832031
1622.412751	0.729505	655.273437	102.832031
1622.414752	0.832332	655.273437	102.832031
1622.416750	0.829448	9.123928	-0.002552
1623.468748	0.816137	-42.382812	-179.589844
1623.470751	0.829144	-42.382812	-179.589844
1623.472750	0.827071	9.097775	0.133608
1624.485311	0.242156	657.324219	102.734375
1624.487312	0.565131	657.324219	102.734375
1624.489312	0.810528	657.324219	102.734375
1624.491312	0.829388	657.324219	102.734375
1624.493312	0.827308	9.100390	-0.002549
1625.541370	0.275515	-42.089844	-179.101562
1625.543369	0.596240	-42.089844	-179.101562
1625.545371	0.819626	-42.089844	-179.101562
1625.547371	0.829132	-42.089844	-179.101562
1625.549369	0.827096	9.098060	0.001557
1626.561387	0.273373	654.589844	105.371094
1626.563390	0.287707	654.589844	105.371094
1626.565389	0.818828	654.589844	105.371094
1626.569387	0.826799	654.589844	105.371094
1626.571388	0.825472	9.080194	-0.002137
1627.620396	0.592267	-44.824219	-181.445312
1627.622398	0.818647	-44.824219	-181.445312
1627.624399	0.829144	-44.824219	-181.445312
1627.626399	0.827173	9.098902	0.179577
