time (s)	coil I (A)	last det (V)	int current (uC)
2294.554474	0.501021	358.203125	83.984375
2294.556478	0.781356	358.203125	83.984375
2294.560475	0.827641	358.203125	83.984375
2294.562477	0.826255	9.088807	-0.000651
2295.602544	0.460883	-14.453125	-52.050781
2295.604545	0.756462	-14.453125	-52.050781
2295.606547	0.830353	-14.453125	-52.050781
2295.608544	0.827614	9.103758	-0.001540
2296.632508	0.473063	347.753906	83.593750
2296.634509	0.764372	347.753906	83.593750
2296.636509	0.829463	347.753906	83.593750
2296.638509	0.826976	9.096739	-0.000720
2297.682521	0.782762	-15.429687	-53.808594
2297.684522	0.785569	-15.429687	-53.808594
2297.688522	0.826553	9.092087	-0.000714
2298.710561	0.778545	336.425781	82.812500
2298.712562	0.829486	336.425781	82.812500
2298.714563	0.827199	9.099185	-0.000870
2299.756616	0.330475	-16.210937	-53.613281
2299.758618	0.647988	-16.210937	-53.613281
2299.760620	0.828228	-16.210937	-53.613281
2299.762625	0.828567	9.114233	-0.001160
2300.786674	0.479241	336.230469	83.105469
2300.788675	0.768145	336.230469	83.105469
2300.790675	0.829323	336.230469	83.105469
2300.792675	0.826892	9.095809	-0.001469
2301.838701	0.829725	-15.429687	-51.074219
2301.840704	0.827154	-15.429687	-51.074219
2301.842702	0.825747	9.083215	-0.001042
2302.864725	0.536107	347.753906	83.496094
2302.866727	0.798772	347.753906	83.496094
2302.870725	0.827172	347.753906	83.496094
2302.872726	0.825720	9.082923	-0.000777
2303.908774	0.304642	-16.113281	-50.976562
2303.910775	0.623601	-16.113281	-50.976562
2303.912775	0.825100	-16.113281	-50.976562
2303.914775	0.828721	-16.113281	-50.976562
2303.916776	0.826924	9.096163	-0.001743
2304.942845	0.443873	349.023437	83.007812
2304.944846	0.744446	349.023437	83.007812
2304.948844	0.827454	349.023437	83.007812
2304.952845	0.824702	9.071721	-0.001068
2305.990872	0.821101	-16.210937	-49.023437
2305.992874	0.828608	-16.210937	-49.023437
2305.994874	0.826685	9.093532	0.247602
2307.016888	0.307661	337.207031	82.031250
2307.018891	0.368839	337.207031	82.031250
2307.020889	0.825200	337.207031	82.031250
2307.022891	0.828357	337.207031	82.031250
2307.024889	0.826561	9.092166	-0.002261
2308.068956	0.458213	-18.066406	-52.050781
2308.070957	0.754582	-18.066406	-52.050781
2308.072958	0.830035	-18.066406	-52.050781
2308.074958	0.827391	9.101303	-0.000487
2309.093036	0.511515	329.785156	81.933594
2309.095040	0.786841	329.785156	81.933594
2309.097039	0.829334	329.785156	81.933594
2309.099039	0.827061	9.097670	-0.002170
2310.151122	0.829478	-18.066406	-54.687500
2310.153129	0.826976	-18.066406	-54.687500
2310.155133	0.825595	9.081541	-0.000151
2311.171194	0.621629	323.144531	84.082031
2311.173194	0.824950	323.144531	84.082031
2311.175194	0.828771	323.144531	84.082031
2311.179192	0.825826	9.084084	-0.001846
2312.223234	0.602258	-17.187500	-53.613281
2312.225237	0.820919	-17.187500	-53.613281
2312.227236	0.828767	-17.187500	-53.613281
2312.229236	0.826895	9.095844	0.231510
2313.249319	0.323977	323.437500	86.328125
2313.251321	0.641535	323.437500	86.328125
2313.253322	0.827491	323.437500	86.328125
2313.257320	0.826757	9.094329	-0.002000
2314.299349	0.630384	-16.992187	-50.781250
2314.301353	0.826588	-16.992187	-50.781250
2314.303352	0.828515	-16.992187	-50.781250
2314.305351	0.826739	9.094133	-0.001158
2315.329464	0.430422	339.746094	85.058594
2315.331465	0.734581	339.746094	85.058594
2315.333465	0.830311	339.746094	85.058594
2315.335465	0.827568	9.103244	-0.001275
2316.375516	0.477733	-20.703125	-57.031250
2316.377519	0.767183	-20.703125	-57.031250
2316.379519	0.829642	-20.703125	-57.031250
2316.381519	0.827092	9.098006	-0.002465
2317.405587	0.736545	353.027344	86.621094
2317.407590	0.830721	353.027344	86.621094
2317.409588	0.827933	9.107267	-0.001222
2318.456181	0.336447	-20.605469	-57.421875
2318.458182	0.653276	-20.605469	-57.421875
2318.462180	0.828680	-20.605469	-57.421875
2318.464180	0.826900	9.095898	-0.001428
2319.480159	0.730542	361.523437	89.843750
2319.482161	0.831163	361.523437	89.843750
2319.484161	0.828458	9.113037	-0.002317
2320.532240	0.320496	-17.480469	-51.171875
2320.534245	0.638427	-17.480469	-51.171875
2320.536245	0.827137	-17.480469	-51.171875
2320.538244	0.828577	9.114348	-0.001844
2321.560270	0.595022	320.410156	89.746094
2321.562274	0.608962	320.410156	89.746094
2321.564278	0.828173	320.410156	89.746094
2321.568280	0.824825	9.073077	0.193076
2322.608308	0.589044	-17.578125	-49.707031
2322.610309	0.816949	-17.578125	-49.707031
2322.612310	0.828109	-17.578125	-49.707031
2322.614310	0.826201	9.088214	0.165566
2323.638339	0.493140	335.449219	88.867187
2323.640343	0.776634	335.449219	88.867187
2323.642340	0.829387	335.449219	88.867187
2323.644341	0.826930	9.096226	-0.001159
2324.684317	0.278308	-18.652344	-48.828125
2324.686317	0.598864	-18.652344	-48.828125
2324.688321	0.820055	-18.652344	-48.828125
2324.690323	0.828651	-18.652344	-48.828125
2324.692324	0.826789	9.094674	-0.001584
2325.714401	0.517203	330.566406	87.304687
2325.716404	0.789588	330.566406	87.304687
2325.718404	0.829363	330.566406	87.304687
2325.720402	0.827040	9.097440	-0.001206
2326.766494	0.586758	-20.312500	-51.269531
2326.768497	0.816812	-20.312500	-51.269531
2326.770495	0.828705	-20.312500	-51.269531
2326.772497	0.826743	9.094170	0.154757
2327.788519	0.436605	317.871094	87.988281
2327.790519	0.739171	317.871094	87.988281
2327.792521	0.830238	317.871094	87.988281
2327.794522	0.827559	9.103147	-0.002830
2328.844592	0.569748	-19.531250	-53.125000
2328.846593	0.811766	-19.531250	-53.125000
2328.848594	0.828941	-19.531250	-53.125000
2328.850593	0.826938	9.096323	0.054474
2329.864686	0.315261	348.242187	94.140625
2329.866697	0.633351	348.242187	94.140625
2329.868695	0.826171	348.242187	94.140625
2329.870695	0.828074	348.242187	94.140625
2329.872695	0.826246	9.088710	-0.002070
2330.920773	0.534355	-20.214844	-56.152344
2330.922775	0.797536	-20.214844	-56.152344
2330.924776	0.828754	-20.214844	-56.152344
2330.926775	0.826560	9.092157	-0.002120
2331.946770	0.564281	323.437500	94.335937
2331.948772	0.809724	323.437500	94.335937
2331.950773	0.828704	323.437500	94.335937
2331.952772	0.826723	9.093947	0.038521
2332.994825	0.362546	-18.359375	-49.511719
2332.996826	0.677620	-18.359375	-49.511719
2333.000826	0.828729	-18.359375	-49.511719
2333.002829	0.827034	9.097377	-0.000872
2334.024870	0.387182	323.339844	94.042969
2334.026870	0.699690	323.339844	94.042969
2334.028871	0.830773	323.339844	94.042969
2334.030872	0.828352	9.111867	-0.000968
2335.070960	0.400215	-18.847656	-48.339844
2335.072962	0.710441	-18.847656	-48.339844
2335.074969	0.831094	-18.847656	-48.339844
2335.076974	0.828382	9.112205	-0.001623
2336.100964	0.290608	333.984375	94.140625
2336.102966	0.610159	333.984375	94.140625
2336.104966	0.823115	333.984375	94.140625
2336.106966	0.829391	333.984375	94.140625
2336.108966	0.827433	9.101765	-0.001482
2337.151042	0.781662	-18.652344	-46.289062
2337.153044	0.828895	-18.652344	-46.289062
2337.155043	0.826563	9.092193	-0.002309
2338.179063	0.318033	326.464844	93.261719
2338.181066	0.636020	326.464844	93.261719
2338.183071	0.826446	326.464844	93.261719
2338.185071	0.828021	326.464844	93.261719
2338.187072	0.826164	9.087806	-0.001248
2339.225118	0.322971	-18.652344	-46.093750
2339.227122	0.640669	-18.652344	-46.093750
2339.229120	0.828170	-18.652344	-46.093750
2339.231120	0.829320	9.122519	-0.001842
2340.257218	0.390815	320.996094	93.457031
2340.261219	0.830933	320.996094	93.457031
2340.263220	0.828425	320.996094	93.457031
2340.265219	0.826865	9.095516	-0.001406
2341.305270	0.766334	-20.898437	-51.464844
2341.307272	0.829209	-20.898437	-51.464844
2341.309272	0.826746	9.094205	-0.002398
2342.333845	0.341263	334.277344	95.996094
2342.335846	0.355231	334.277344	95.996094
2342.337846	0.829252	334.277344	95.996094
2342.339847	0.828705	9.115758	-0.001519
2343.381853	0.615928	-19.726562	-47.070312
2343.383854	0.823166	-19.726562	-47.070312
2343.385854	0.824044	-19.726562	-47.070312
2343.389854	0.824767	9.072439	-0.001564
2344.411912	0.484660	318.847656	95.703125
2344.415912	0.829591	318.847656	95.703125
2344.417914	0.827205	318.847656	95.703125
2344.419913	0.825741	9.083154	-0.000911
2345.457944	0.364019	-19.824219	-47.265625
2345.459944	0.678807	-19.824219	-47.265625
2345.461945	0.830586	-19.824219	-47.265625
2345.463945	0.828746	9.116201	-0.000848
2346.489961	0.499001	321.582031	97.851562
2346.491963	0.779907	321.582031	97.851562
2346.493965	0.829293	321.582031	97.851562
2346.495965	0.826926	9.096189	-0.001403
2347.535993	0.419680	-20.019531	-46.582031
2347.537997	0.726251	-20.019531	-46.582031
2347.539995	0.831545	-20.019531	-46.582031
2347.541996	0.828760	9.116361	-0.002303
2348.568028	0.744584	308.398437	98.828125
2348.572029	0.827481	308.398437	98.828125
2348.574033	0.825980	9.085777	-0.001385
2349.616002	0.541857	-20.898437	-48.730469
2349.618003	0.800791	-20.898437	-48.730469
2349.620003	0.828602	-20.898437	-48.730469
2349.622006	0.826483	9.091316	-0.001581
2350.642022	0.537256	296.093750	98.242187
2350.644022	0.798890	296.093750	98.242187
2350.648021	0.826656	296.093750	98.242187
2350.650022	0.825194	9.077136	-0.002100
2351.694010	0.348750	-21.191406	-50.585937
2351.696012	0.664811	-21.191406	-50.585937
2351.698012	0.670277	-21.191406	-50.585937
2351.700012	0.828845	9.117300	-0.001611
2352.718049	0.677299	297.363281	96.679687
2352.720051	0.829264	297.363281	96.679687
2352.722050	0.827573	9.103306	-0.002473
2353.774037	0.631626	-23.242187	-52.539062
2353.776036	0.826349	-23.242187	-52.539062
2353.778036	0.828318	-23.242187	-52.539062
2353.780036	0.826391	9.090305	0.386411
2354.794126	0.383664	306.250000	96.582031
2354.796127	0.696543	306.250000	96.582031
2354.800124	0.829390	306.250000	96.582031
2354.802128	0.827659	9.104255	-0.002037
2355.848131	0.307173	-22.656250	-46.582031
2355.850133	0.625789	-22.656250	-46.582031
2355.852134	0.825098	-22.656250	-46.582031
2355.854134	0.828282	-22.656250	-46.582031
2355.856134	0.826499	9.091493	-0.001068
2356.874173	0.391201	309.082031	97.265625
2356.876172	0.702757	309.082031	97.265625
2356.878172	0.830998	309.082031	97.265625
2356.880172	0.828558	9.114136	-0.001771
2357.922164	0.379687	-23.925781	-51.074219
2357.924166	0.692798	-23.925781	-51.074219
2357.926165	0.829244	-23.925781	-51.074219
2357.928166	0.827097	9.098068	-0.001834
2358.953076	0.336570	323.046875	101.074219
2358.957076	0.829012	323.046875	101.074219
2358.959079	0.828950	323.046875	101.074219
2358.961083	0.827179	9.098964	-0.001698
2360.001615	0.729422	-21.875000	-47.167969
2360.003619	0.830240	-21.875000	-47.167969
2360.005618	0.827568	9.103253	-0.001267
2361.031663	0.716333	307.421875	104.199219
2361.033665	0.829746	307.421875	104.199219
2361.035664	0.827121	9.098334	-0.000972
2362.079719	0.357397	-20.898437	-47.070312
2362.081722	0.672764	-20.898437	-47.070312
2362.083722	0.828895	-20.898437	-47.070312
2362.085721	0.827558	9.103138	-0.000918
2363.103808	0.493617	294.042969	101.757812
2363.105809	0.776497	294.042969	101.757812
2363.107808	0.828868	294.042969	101.757812
2363.109809	0.826498	9.091475	-0.001772
2364.159850	0.499687	-23.339844	-49.707031
2364.161851	0.779984	-23.339844	-49.707031
2364.163851	0.828946	-23.339844	-49.707031
2364.165851	0.826571	9.092281	-0.001362
2365.180460	0.451370	299.511719	100.585937
2365.182461	0.463718	299.511719	100.585937
2365.186459	0.827043	299.511719	100.585937
2365.188461	0.825421	9.079635	-0.002086
2366.238529	0.800903	-23.632812	-46.191406
2366.240533	0.829008	-23.632812	-46.191406
2366.242533	0.826888	9.095764	-0.000921
2367.260508	0.497920	301.074219	100.585937
2367.262511	0.779182	301.074219	100.585937
2367.264510	0.829355	301.074219	100.585937
2367.266511	0.826917	9.096092	-0.002004
2368.310581	0.492703	-22.558594	-42.968750
2368.312584	0.776151	-22.558594	-42.968750
2368.314583	0.829272	-22.558594	-42.968750
2368.316584	0.826895	9.095844	-0.001873
2369.340639	0.597838	305.957031	103.613281
2369.342641	0.819208	305.957031	103.613281
2369.344640	0.828063	305.957031	103.613281
2369.346641	0.826174	9.087913	0.203376
2370.386613	0.551982	-21.777344	-44.628906
2370.388615	0.804954	-21.777344	-44.628906
2370.390616	0.828692	-21.777344	-44.628906
2370.392615	0.826641	9.093053	-0.000790
2371.418689	0.693108	299.414062	107.031250
2371.420692	0.829833	299.414062	107.031250
2371.422691	0.827727	9.104999	-0.001648
2372.464702	0.451484	-21.972656	-44.921875
2372.466703	0.465912	-21.972656	-44.921875
2372.468705	0.829637	-21.972656	-44.921875
2372.470704	0.826935	9.096287	-0.001380
2373.492717	0.479021	286.035156	107.519531
2373.494719	0.767853	286.035156	107.519531
2373.496719	0.771630	286.035156	107.519531
2373.498720	0.826840	9.095242	-0.001192
2374.542692	0.291391	-22.363281	-46.777344
2374.544695	0.610726	-22.363281	-46.777344
2374.546695	0.822332	-22.363281	-46.777344
2374.548697	0.828190	-22.363281	-46.777344
2374.550701	0.826361	9.089969	-0.001414
2375.566657	0.240893	281.835937	106.640625
2375.568658	0.563713	281.835937	106.640625
2375.570658	0.809399	281.835937	106.640625
2375.572658	0.828526	281.835937	106.640625
2375.574658	0.826466	9.091129	-0.003479
2376.622713	0.501461	-22.656250	-46.191406
2376.624714	0.781059	-22.656250	-46.191406
2376.628712	0.826681	-22.656250	-46.191406
2376.630715	0.825157	9.076728	-0.001034
2377.644765	0.514757	304.492187	109.570312
2377.646766	0.787793	304.492187	109.570312
2377.650766	0.826075	304.492187	109.570312
2377.652767	0.824495	9.069443	-0.002019
2378.699375	0.336476	-24.804687	-50.195312
2378.701377	0.653405	-24.804687	-50.195312
2378.703378	0.828099	-24.804687	-50.195312
2378.705377	0.827971	9.107676	-0.001904
2379.720357	0.300998	282.519531	106.250000
2379.722360	0.620005	282.519531	106.250000
2379.724358	0.824624	282.519531	106.250000
2379.726359	0.828925	282.519531	106.250000
2379.728359	0.827083	9.097909	-0.002569
2380.778384	0.585959	-24.902344	-48.535156
2380.780387	0.815821	-24.902344	-48.535156
2380.782385	0.827846	-24.902344	-48.535156
2380.784388	0.825753	9.083286	-0.001743
2381.796919	0.284333	283.496094	106.738281
2381.798920	0.604192	283.496094	106.738281
2381.800921	0.820878	283.496094	106.738281
2381.802921	0.828445	283.496094	106.738281
2381.804920	0.826485	9.091333	-0.003131
2382.855004	0.495988	-24.609375	-47.167969
2382.857005	0.504800	-24.609375	-47.167969
2382.859007	0.828910	-24.609375	-47.167969
2382.861008	0.826556	9.092113	-0.001446
2383.877061	0.710553	309.667969	111.718750
2383.879063	0.830576	309.667969	111.718750
2383.881063	0.827935	9.107285	-0.002187
2384.931087	0.320102	-24.023437	-45.410156
2384.933092	0.638017	-24.023437	-45.410156
2384.935095	0.827253	-24.023437	-45.410156
2384.937094	0.828591	9.114500	-0.001564
2385.953053	0.488924	277.734375	108.300781
2385.955055	0.774043	277.734375	108.300781
2385.957057	0.829409	277.734375	108.300781
2385.959056	0.826941	9.096349	-0.002678
2387.009086	0.493515	-24.902344	-47.851562
2387.011089	0.776568	-24.902344	-47.851562
2387.013087	0.829203	-24.902344	-47.851562
2387.015088	0.826836	9.095198	-0.001646
2388.029685	0.317390	276.171875	110.058594
2388.031690	0.635410	276.171875	110.058594
2388.033691	0.826569	276.171875	110.058594
2388.035690	0.828298	276.171875	110.058594
2388.037692	0.826608	9.092690	-0.002473
2389.085747	0.451697	-24.218750	-46.093750
2389.087747	0.749449	-24.218750	-46.093750
2389.089746	0.828953	-24.218750	-46.093750
2389.091746	0.826340	9.089738	-0.001445
2390.107772	0.338132	299.023437	116.796875
2390.109776	0.654738	299.023437	116.796875
2390.111775	0.828780	299.023437	116.796875
2390.115774	0.826659	9.093247	-0.002592
2391.161807	0.351196	-22.460937	-41.601562
2391.163808	0.667082	-22.460937	-41.601562
2391.165809	0.828808	-22.460937	-41.601562
2391.167807	0.827684	9.104529	-0.002433
2392.186290	0.300762	271.093750	115.136719
2392.190289	0.824310	271.093750	115.136719
2392.192291	0.828800	271.093750	115.136719
2392.194291	0.826870	9.095570	-0.001751
2393.238321	0.490156	-23.046875	-41.992187
2393.242320	0.828898	-23.046875	-41.992187
2393.244324	0.826392	-23.046875	-41.992187
2393.246324	0.824947	9.074415	-0.001164
2394.266309	0.472656	272.167969	115.625000
2394.268312	0.763939	272.167969	115.625000
2394.270318	0.829477	272.167969	115.625000
2394.272315	0.826947	9.096420	-0.001859
2395.314404	0.557940	-25.390625	-46.582031
2395.316405	0.806964	-25.390625	-46.582031
2395.318405	0.828064	-25.390625	-46.582031
2395.320406	0.825992	9.085909	-0.002412
2396.346463	0.782901	295.312500	117.382812
2396.348465	0.829011	295.312500	117.382812
2396.350466	0.826771	9.094480	-0.002401
2397.393024	0.785317	-25.000000	-43.164062
2397.397023	0.828688	-25.000000	-43.164062
2397.399026	0.825061	9.075673	-0.000818
2398.419624	0.345304	290.820312	115.039062
2398.421625	0.661321	290.820312	115.039062
2398.423624	0.829737	290.820312	115.039062
2398.425626	0.828976	9.118735	-0.002007
2399.469711	0.382262	-25.390625	-40.234375
2399.471712	0.695026	-25.390625	-40.234375
2399.475712	0.827790	-25.390625	-40.234375
2399.477713	0.826090	9.086990	-0.001282
2400.497742	0.781084	269.726562	112.695312
2400.499743	0.828874	269.726562	112.695312
2400.501742	0.826470	9.091165	-0.002708
2401.550219	0.504168	-25.585937	-40.332031
2401.554219	0.828745	-25.585937	-40.332031
2401.556221	0.826470	-25.585937	-40.332031
2401.558220	0.824898	9.073883	-0.000990
2402.570307	0.370473	281.250000	116.699219
2402.572307	0.684421	281.250000	116.699219
2402.574305	0.829976	281.250000	116.699219
2402.576306	0.828073	9.108801	-0.002051
2403.628322	0.568060	-26.171875	-45.117187
2403.630324	0.810782	-26.171875	-45.117187
2403.632323	0.828447	-26.171875	-45.117187
2403.634323	0.826373	9.090101	-0.001364
2404.650879	0.803195	283.203125	121.386719
2404.652881	0.828338	283.203125	121.386719
2404.654881	0.826298	9.089277	-0.002954
2405.703425	0.442494	-26.562500	-46.093750
2405.705427	0.743228	-26.562500	-46.093750
2405.707427	0.829124	-26.562500	-46.093750
2405.709427	0.829021	9.119231	-0.002231
2406.727485	0.327033	267.480469	122.460937
2406.729487	0.644364	267.480469	122.460937
2406.731487	0.827695	267.480469	122.460937
2406.733487	0.828441	9.112850	-0.001525
2407.777532	0.360124	-25.000000	-41.894531
2407.781532	0.830271	-25.000000	-41.894531
2407.783536	0.830553	-25.000000	-41.894531
2407.785542	0.827120	9.098326	-0.000894
2408.807607	0.431248	261.816406	120.507812
2408.809609	0.734805	261.816406	120.507812
2408.813607	0.827359	261.816406	120.507812
2408.815609	0.825781	9.083596	-0.001544
2409.855617	0.623250	-25.683594	-40.234375
2409.857619	0.823988	-25.683594	-40.234375
2409.859619	0.827505	-25.683594	-40.234375
2409.861621	0.825568	9.081247	-0.001432
2410.883635	0.368383	276.562500	120.117187
2410.885635	0.682940	276.562500	120.117187
2410.887636	0.830080	276.562500	120.117187
2410.889635	0.828134	9.109474	-0.002376
2411.931735	0.332605	-26.367187	-38.769531
2411.933736	0.649530	-26.367187	-38.769531
2411.935736	0.827815	-26.367187	-38.769531
2411.937738	0.828149	9.109642	-0.002119
2412.959780	0.366859	272.265625	118.652344
2412.961781	0.681347	272.265625	118.652344
2412.963783	0.829560	272.265625	118.652344
2412.965782	0.827867	9.106532	-0.001347
2414.011855	0.475941	-27.929687	-39.648437
2414.013857	0.765882	-27.929687	-39.648437
2414.015857	0.829173	-27.929687	-39.648437
2414.017857	0.826616	9.092778	-0.001043
2415.035951	0.369264	283.886719	121.679687
2415.037954	0.683513	283.886719	121.679687
2415.039955	0.831005	283.886719	121.679687
2415.041954	0.829011	9.119117	-0.002778
2416.090946	0.452034	-30.468750	-44.140625
2416.092948	0.749977	-30.468750	-44.140625
2416.094949	0.829480	-30.468750	-44.140625
2416.096948	0.826854	9.095392	-0.001826
2417.111906	0.459525	261.035156	119.726562
2417.113908	0.755203	261.035156	119.726562
2417.115909	0.829690	261.035156	119.726562
2417.117907	0.827135	9.098485	-0.001914
2418.169957	0.697436	-29.687500	-44.140625
2418.171958	0.829612	-29.687500	-44.140625
2418.173958	0.827385	9.101233	-0.001500
2419.188567	0.457515	260.839844	121.777344
2419.190569	0.754005	260.839844	121.777344
2419.192568	0.829771	260.839844	121.777344
2419.196568	0.825650	9.082151	-0.002179
2420.248655	0.815497	-29.101562	-43.652344
2420.250658	0.828154	-29.101562	-43.652344
2420.252657	0.826195	9.088143	0.141166
2421.267257	0.725745	273.046875	126.367187
2421.269261	0.830117	273.046875	126.367187
2421.271264	0.827462	9.102083	-0.003086
2422.321835	0.304428	-27.929687	-40.722656
2422.323836	0.622998	-27.929687	-40.722656
2422.325837	0.824162	-27.929687	-40.722656
2422.329841	0.825959	-27.929687	-40.722656
2422.331843	0.824560	9.070161	-0.002813
2423.341936	0.337836	264.355469	126.660156
2423.343938	0.654687	264.355469	126.660156
2423.347936	0.828204	264.355469	126.660156
2423.349937	0.826470	9.091173	-0.002494
2424.401971	0.652550	-27.832031	-42.285156
2424.403972	0.827674	-27.832031	-42.285156
2424.405972	0.827624	9.103865	0.494770
2425.420572	0.568802	252.343750	125.878906
2425.422574	0.810924	252.343750	125.878906
2425.424573	0.828344	252.343750	125.878906
2425.426573	0.826288	9.089170	0.065019
2426.480657	0.822511	-28.906250	-42.675781
2426.482658	0.828068	-28.906250	-42.675781
2426.484659	0.826171	9.087886	-0.001064
2427.497235	1.376755	250.976562	126.367187
2427.499239	0.771396	250.976562	126.367187
2427.501239	0.828846	250.976562	126.367187
2427.503237	0.826492	9.091413	-0.001926
2428.557231	0.789351	-29.882812	-43.457031
2428.559234	0.828713	-29.882812	-43.457031
2428.561235	0.826480	9.091280	-0.002392
2429.575253	0.614421	255.664062	127.832031
2429.577254	0.823137	255.664062	127.832031
2429.579255	0.828284	255.664062	127.832031
2429.581255	0.826482	9.091298	0.293442
2430.633281	0.692094	-29.785156	-41.406250
2430.635283	0.829802	-29.785156	-41.406250
2430.637285	0.827680	9.104486	-0.001443
2431.651868	0.406074	254.199219	128.320312
2431.653870	0.419467	254.199219	128.320312
2431.655868	0.830254	254.199219	128.320312
2431.657870	0.827762	9.105380	-0.001924
2432.707927	0.289936	-30.468750	-40.332031
2432.709928	0.609151	-30.468750	-40.332031
2432.711929	0.821801	-30.468750	-40.332031
2432.713927	0.828024	-30.468750	-40.332031
2432.715927	0.826132	9.087451	-0.002135
2433.730539	0.479271	256.738281	129.101562
2433.732540	0.767775	256.738281	129.101562
2433.734540	0.828734	256.738281	129.101562
2433.736542	0.826352	9.089870	-0.001770
2434.784599	0.415553	-30.371094	-38.281250
2434.786599	0.723006	-30.371094	-38.281250
2434.788601	0.831804	-30.371094	-38.281250
2434.790608	0.828958	9.118541	-0.000538
2435.810642	0.694204	267.968750	132.519531
2435.812645	0.829247	267.968750	132.519531
2435.814646	0.827044	9.097484	-0.002962
2436.861183	0.643327	-30.664062	-39.648437
2436.863183	0.827380	-30.664062	-39.648437
2436.865182	0.828344	9.111787	0.443818
2437.887286	0.369930	262.988281	133.789062
2437.889289	0.684075	262.988281	133.789062
2437.891288	0.829671	262.988281	133.789062
2437.893289	0.827720	9.104919	-0.002331
2438.935307	0.404252	-28.125000	-36.328125
2438.937307	0.713713	-28.125000	-36.328125
2438.941305	0.828356	-28.125000	-36.328125
2438.943306	0.826782	9.094604	-0.001507
2439.965311	0.381848	248.339844	134.960937
2439.967316	0.694664	248.339844	134.960937
2439.969318	0.830897	248.339844	134.960937
2439.971315	0.828595	9.114544	-0.001444
2441.013307	0.493147	-27.929687	-36.230469
2441.015310	0.776557	-27.929687	-36.230469
2441.017308	0.829320	-27.929687	-36.230469
2441.019309	0.826971	9.096677	-0.001794
2442.043359	0.598469	240.917969	138.085937
2442.045361	0.819540	240.917969	138.085937
2442.047359	0.828331	240.917969	138.085937
2442.049359	0.826379	9.090172	0.215045
2443.091390	0.349860	-28.125000	-37.109375
2443.093391	0.665918	-28.125000	-37.109375
2443.095391	0.829483	-28.125000	-37.109375
2443.097390	0.828452	9.112975	-0.002026
2444.117463	0.436015	233.789062	137.988281
2444.119467	0.738535	233.789062	137.988281
2444.121467	0.829694	233.789062	137.988281
2444.123466	0.827088	9.097971	-0.002662
2445.171551	0.417728	-29.492187	-39.746094
2445.173555	0.725130	-29.492187	-39.746094
2445.175555	0.832562	-29.492187	-39.746094
2445.177554	0.829713	9.126844	-0.001659
2446.191666	0.325703	231.640625	135.351562
2446.193668	0.643279	231.640625	135.351562
2446.195668	0.827747	231.640625	135.351562
2446.197667	0.828642	9.115067	-0.003289
2447.250119	0.475084	-31.250000	-40.527344
2447.252121	0.765369	-31.250000	-40.527344
2447.254122	0.829266	-31.250000	-40.527344
2447.256119	0.826789	9.094683	-0.001554
2448.272114	0.810918	232.324219	133.789062
2448.274117	0.828576	232.324219	133.789062
2448.276117	0.826473	9.091200	0.052416
2449.326193	0.335227	-33.007812	-41.406250
2449.328193	0.652103	-33.007812	-41.406250
2449.330193	0.828609	-33.007812	-41.406250
2449.334192	0.826870	9.095570	-0.001614
2450.348230	0.551284	241.699219	135.839844
2450.350229	0.804304	241.699219	135.839844
2450.352230	0.828215	241.699219	135.839844
2450.354230	0.826034	9.086370	-0.001644
2451.402243	0.401752	-32.519531	-37.695312
2451.404247	0.711815	-32.519531	-37.695312
2451.406246	0.831022	-32.519531	-37.695312
2451.408247	0.828468	9.113153	-0.000799
2452.428246	0.633280	236.425781	135.058594
2452.430249	0.826794	236.425781	135.058594
2452.432248	0.828812	236.425781	135.058594
2452.434249	0.827031	9.097342	0.390988
2453.478313	0.547117	-30.468750	-34.277344
2453.480315	0.803122	-30.468750	-34.277344
2453.482315	0.828734	-30.468750	-34.277344
2453.484315	0.826619	9.092804	-0.002310
2454.504394	0.308555	241.113281	138.964844
2454.506401	0.626751	241.113281	138.964844
2454.508403	0.826263	241.113281	138.964844
2454.510401	0.829270	241.113281	138.964844
2454.512401	0.827437	9.101809	-0.002713
2455.554400	0.657241	-29.980469	-35.351562
2455.556401	0.828107	-29.980469	-35.351562
2455.558400	0.827743	9.105176	-0.002370
2456.584445	0.600319	241.210937	142.285156
2456.586446	0.609508	241.210937	142.285156
2456.588447	0.828274	241.210937	142.285156
2456.590448	0.828166	9.109829	0.221335
2457.630493	0.446412	-30.664062	-36.132812
2457.632492	0.746249	-30.664062	-36.132812
2457.634493	0.829702	-30.664062	-36.132812
2457.636493	0.827058	9.097644	-0.001920
2458.660555	0.350818	230.078125	143.066406
2458.662556	0.666656	230.078125	143.066406
2458.664556	0.828328	230.078125	143.066406
2458.666554	0.827365	9.101019	-0.002478
2459.708620	0.551795	-30.078125	-35.351562
2459.710621	0.562885	-30.078125	-35.351562
2459.712626	0.828386	-30.078125	-35.351562
2459.714631	0.826298	9.089277	-0.002443
2460.738710	0.624479	223.925781	145.507812
2460.740711	0.824271	223.925781	145.507812
2460.742711	0.827728	223.925781	145.507812
2460.744711	0.825874	9.084616	0.343677
2461.784686	0.249996	-30.371094	-35.253906
2461.786688	0.571978	-30.371094	-35.253906
2461.788688	0.812108	-30.371094	-35.253906
2461.790689	0.828416	-30.371094	-35.253906
2461.792688	0.826428	9.090704	-0.002441
2462.816636	0.761433	226.855469	148.339844
2462.818640	0.828993	226.855469	148.339844
2462.820643	0.826515	9.091661	-0.001292
2463.862684	0.343722	-31.445312	-36.914062
2463.864685	0.659946	-31.445312	-36.914062
2463.866684	0.827811	-31.445312	-36.914062
2463.868685	0.827184	9.099026	-0.001576
2464.890728	0.335378	218.750000	148.144531
2464.892731	0.652142	218.750000	148.144531
2464.894730	0.827192	218.750000	148.144531
2464.898728	0.825529	9.080813	-0.003041
2465.940802	0.411761	-30.566406	-34.472656
2465.942805	0.719967	-30.566406	-34.472656
2465.944804	0.831404	-30.566406	-34.472656
2465.946804	0.828692	9.115616	-0.002131
2466.968862	0.566546	218.261719	149.316406
2466.970864	0.809936	218.261719	149.316406
2466.972864	0.828001	218.261719	149.316406
2466.974865	0.825992	9.085909	0.039174
2468.016882	0.317040	-31.738281	-35.937500
2468.018884	0.634912	-31.738281	-35.937500
2468.020885	0.826433	-31.738281	-35.937500
2468.022883	0.828206	9.110263	-0.001536
2469.046924	0.585250	214.648437	149.414062
2469.048927	0.816107	214.648437	149.414062
2469.052925	0.826465	214.648437	149.414062
2469.054926	0.825151	9.076666	0.148740
2470.094890	0.530614	-30.761719	-34.082031
2470.096893	0.795962	-30.761719	-34.082031
2470.098892	0.798163	-30.761719	-34.082031
2470.100892	0.826892	9.095809	-0.002009
2471.122921	0.439153	217.871094	151.269531
2471.124919	0.740939	217.871094	151.269531
2471.126919	0.829429	217.871094	151.269531
2471.128920	0.826880	9.095684	-0.001775
2472.170907	0.426780	-31.347656	-34.375000
2472.172908	0.731730	-31.347656	-34.375000
2472.174907	0.830350	-31.347656	-34.375000
2472.176909	0.827587	9.103457	-0.001967
2473.200967	0.533138	222.460937	152.246094
2473.202969	0.796670	222.460937	152.246094
2473.204968	0.828260	222.460937	152.246094
2473.206970	0.826232	9.088551	-0.001582
2474.247010	0.334965	-31.835937	-33.593750
2474.249014	0.651592	-31.835937	-33.593750
2474.251011	0.827896	-31.835937	-33.593750
2474.253012	0.827884	9.106727	-0.001594
2475.277050	0.361044	224.023437	151.562500
2475.279053	0.676148	224.023437	151.562500
2475.281054	0.829325	224.023437	151.562500
2475.283052	0.827778	9.105557	-0.002398
2476.325078	0.476337	-32.031250	-32.812500
2476.327080	0.766082	-32.031250	-32.812500
2476.329081	0.829554	-32.031250	-32.812500
2476.331081	0.827036	9.097395	-0.001694
2477.353156	0.304410	223.339844	150.781250
2477.357155	0.825457	223.339844	150.781250
2477.359156	0.829269	223.339844	150.781250
2477.361157	0.827433	9.101765	-0.003442
2478.403248	0.427303	-32.226562	-30.957031
2478.407249	0.829972	-32.226562	-30.957031
2478.409251	0.827323	-32.226562	-30.957031
2478.411251	0.825852	9.084367	-0.002468
2479.431300	0.623099	221.875000	151.074219
2479.433304	0.824311	221.875000	151.074219
2479.435305	0.827804	221.875000	151.074219
2479.437304	0.826060	9.086662	-0.003970
2480.481351	0.329099	-33.691406	-31.738281
2480.485352	0.828286	-33.691406	-31.738281
2480.487354	0.828747	-33.691406	-31.738281
2480.489353	0.826996	9.096961	-0.002252
2481.505434	0.383914	236.328125	156.738281
2481.507434	0.696392	236.328125	156.738281
2481.509435	0.830223	236.328125	156.738281
2481.511437	0.827922	9.107143	-0.002867
2482.561534	0.521149	-33.886719	-32.031250
2482.563536	0.790982	-33.886719	-32.031250
2482.565538	0.828223	-33.886719	-32.031250
2482.567539	0.826020	9.086220	-0.001981
2483.581589	0.504845	230.175781	158.007812
2483.583590	0.782659	230.175781	158.007812
2483.585590	0.828784	230.175781	158.007812
2483.587590	0.826441	9.090855	-0.003426
2484.638582	0.417794	-36.914062	-38.964844
2484.640582	0.430330	-36.914062	-38.964844
2484.642582	0.830746	-36.914062	-38.964844
2484.644584	0.828031	9.108339	-0.002474
2485.658593	0.555383	212.597656	156.445312
2485.660596	0.806537	212.597656	156.445312
2485.662593	0.828990	212.597656	156.445312
2485.666594	0.825557	9.081123	-0.002040
2486.716592	0.628150	-35.351562	-38.085937
2486.718590	0.826659	-35.351562	-38.085937
2486.720589	0.827426	-35.351562	-38.085937
2486.722588	0.827787	9.105655	0.358944
2487.737588	0.638522	203.515625	159.375000
2487.741584	0.826903	203.515625	159.375000
2487.743587	0.826181	9.087993	-0.002355
2488.791643	0.456237	-34.082031	-35.546875
2488.793643	0.752817	-34.082031	-35.546875
2488.795644	0.829278	-34.082031	-35.546875
2488.797644	0.826770	9.094471	-0.001959
2489.815718	0.546748	200.585937	162.597656
2489.817718	0.802693	200.585937	162.597656
2489.819719	0.828439	200.585937	162.597656
2489.821721	0.826267	9.088932	-0.002289
2490.867729	0.563216	-34.082031	-33.886719
2490.869730	0.809440	-34.082031	-33.886719
2490.873730	0.826963	-34.082031	-33.886719
2490.875731	0.825545	9.080991	0.028142
2491.895788	0.714124	215.234375	168.750000
2491.897788	0.829697	215.234375	168.750000
2491.899789	0.827087	9.097962	-0.002616
2492.944328	0.708751	-35.351562	-35.937500
2492.946329	0.829870	-35.351562	-35.937500
2492.948329	0.827285	9.100134	-0.002059
2493.971255	0.326690	214.550781	167.187500
2493.973257	0.644144	214.550781	167.187500
2493.975258	0.827907	214.550781	167.187500
2493.977257	0.828610	9.114712	-0.001854
2495.019324	0.450130	-33.203125	-30.957031
2495.021326	0.748756	-33.203125	-30.957031
2495.025322	0.827572	-33.203125	-30.957031
2495.027325	0.826126	9.087380	-0.002829
2496.049326	0.508666	209.863281	163.867187
2496.051328	0.785022	209.863281	163.867187
2496.053334	0.829031	209.863281	163.867187
2496.055334	0.826692	9.093611	-0.002385
2497.097452	0.636802	-33.984375	-30.078125
2497.099451	0.825902	-33.984375	-30.078125
2497.101452	0.827534	9.102872	0.401122
2498.125506	0.511718	209.375000	163.281250
2498.127506	0.786373	209.375000	163.281250
2498.129507	0.828584	209.375000	163.281250
2498.131506	0.826393	9.090323	-0.003176
2499.177529	0.822989	-35.742187	-31.542969
2499.179531	0.827585	-35.742187	-31.542969
2499.183530	0.824306	9.067361	-0.001670
2500.201597	0.380079	207.421875	163.378906
2500.203601	0.693118	207.421875	163.378906
2500.205599	0.829406	207.421875	163.378906
2500.207600	0.827265	9.099912	-0.003176
2501.253598	0.595716	-36.621094	-31.640625
2501.255600	0.818651	-36.621094	-31.640625
2501.257600	0.828045	-36.621094	-31.640625
2501.259601	0.826158	9.087735	0.193171
2502.279688	0.643839	223.535156	169.628906
2502.281688	0.827071	223.535156	169.628906
2502.283687	0.827805	9.105849	-0.003651
2503.330648	0.494679	-38.183594	-32.421875
2503.332650	0.777007	-38.183594	-32.421875
2503.334650	0.828729	-38.183594	-32.421875
2503.336652	0.826411	9.090518	-0.001910
2504.355195	0.460839	209.375000	166.601562
2504.357197	0.755882	209.375000	166.601562
2504.359198	0.828946	209.375000	166.601562
2504.361197	0.826362	9.089977	-0.002560
2505.411267	0.826234	-38.476562	-31.738281
2505.413269	0.827630	9.103927	0.422792
2506.433865	0.692680	211.328125	169.433594
2506.435867	0.828845	211.328125	169.433594
2506.437868	0.826804	9.094843	-0.002717
2507.483941	0.324116	-37.402344	-29.980469
2507.485941	0.641615	-37.402344	-29.980469
2507.487942	0.826453	-37.402344	-29.980469
2507.491939	0.825673	9.082400	-0.001210
2508.509986	0.526535	201.074219	167.480469
2508.511987	0.793490	201.074219	167.480469
2508.513987	0.828000	201.074219	167.480469
2508.515987	0.825790	9.083685	-0.003462
2509.562015	0.507070	-38.378906	-31.347656
2509.564018	0.783989	-38.378906	-31.347656
2509.566017	0.828538	-38.378906	-31.347656
2509.568017	0.826257	9.088825	-0.001818
2510.588080	0.549249	201.953125	169.824219
2510.590081	0.803508	201.953125	169.824219
2510.592083	0.828027	201.953125	169.824219
2510.594083	0.826034	9.086379	-0.002512
2511.638146	0.463399	-36.816406	-28.515625
2511.640149	0.757688	-36.816406	-28.515625
2511.642150	0.828928	-36.816406	-28.515625
2511.644148	0.826551	9.092060	-0.002298
2512.664095	0.322487	203.222656	171.582031
2512.666098	0.640114	203.222656	171.582031
2512.668097	0.826482	203.222656	171.582031
2512.670098	0.827694	9.104635	-0.002641
2513.714148	0.438161	-37.988281	-30.273437
2513.716148	0.740461	-37.988281	-30.273437
2513.720147	0.828071	-37.988281	-30.273437
2513.722149	0.826559	9.092149	-0.001598
2514.742148	0.338789	197.753906	173.437500
2514.744150	0.655134	197.753906	173.437500
2514.746151	0.828499	197.753906	173.437500
2514.748150	0.828260	9.110857	-0.003621
2515.792204	0.348977	-37.402344	-30.371094
2515.794206	0.827965	-37.402344	-30.371094
2515.796206	0.827742	9.105159	-0.002079
2516.820299	0.454470	198.632812	177.832031
2516.822301	0.751507	198.632812	177.832031
2516.824301	0.828716	198.632812	177.832031
2516.826300	0.826198	9.088179	-0.002007
2517.868349	0.573033	-36.425781	-29.492187
2517.870351	0.812208	-36.425781	-29.492187
2517.872351	0.828176	-36.425781	-29.492187
2517.874350	0.826224	9.088462	0.074008
2518.898455	0.565368	191.406250	180.566406
2518.900456	0.809596	191.406250	180.566406
2518.902454	0.828117	191.406250	180.566406
2518.904454	0.826049	9.086538	0.049636
2519.946493	0.602960	-39.453125	-34.277344
2519.948494	0.820215	-39.453125	-34.277344
2519.950501	0.827805	-39.453125	-34.277344
2519.952504	0.825862	9.084482	-0.002680
2520.973469	0.300173	188.574219	184.667969
2520.975469	0.618766	188.574219	184.667969
2520.977472	0.823506	188.574219	184.667969
2520.979469	0.827922	188.574219	184.667969
2520.981471	0.826032	9.086352	-0.001731
2522.023534	0.378262	-36.523437	-30.078125
2522.025535	0.691355	-36.523437	-30.078125
2522.027536	0.830113	-36.523437	-30.078125
2522.029535	0.827990	9.107888	-0.002106
2523.051583	0.727141	178.222656	183.203125
2523.053585	0.830747	178.222656	183.203125
2523.055586	0.827986	9.107843	-0.002879
2524.104087	0.667021	-38.281250	-32.031250
2524.106093	0.828609	-38.281250	-32.031250
2524.108092	0.827509	9.102597	-0.002087
2525.126137	0.641384	179.101562	182.910156
2525.128136	0.827166	179.101562	182.910156
2525.130138	0.828202	9.110228	0.436850
2526.180153	0.326646	-40.039062	-34.472656
2526.182153	0.643945	-40.039062	-34.472656
2526.184152	0.827073	-40.039062	-34.472656
2526.186154	0.827871	9.106576	-0.001698
2527.200769	0.441186	181.250000	182.128906
2527.202771	0.454259	181.250000	182.128906
2527.204771	0.828863	181.250000	182.128906
2527.206771	0.826389	9.090279	-0.003989
2528.260835	0.745133	-41.992187	-34.960937
2528.262839	0.829079	-41.992187	-34.960937
2528.264838	0.826531	9.091838	-0.002286
2529.277430	0.440146	197.363281	186.621094
2529.279431	0.741292	197.363281	186.621094
2529.281433	0.829028	197.363281	186.621094
2529.283432	0.826493	9.091422	-0.003061
2530.337479	0.673356	-39.550781	-29.394531
2530.339487	0.828762	-39.550781	-29.394531
2530.341492	0.827388	9.101268	-0.002095
2531.357960	0.821519	197.070312	186.621094
2531.359962	0.827343	197.070312	186.621094
2531.361962	0.825349	9.078837	-0.003572
2532.412518	0.415611	-40.722656	-28.613281
2532.414520	0.722672	-40.722656	-28.613281
2532.416521	0.830310	-40.722656	-28.613281
2532.420518	0.826151	9.087665	-0.002336
2533.434584	0.597515	194.433594	186.230469
2533.436586	0.819008	194.433594	186.230469
2533.438588	0.828084	194.433594	186.230469
2533.440584	0.826128	9.087407	-0.002066
2534.489127	0.567270	-43.261719	-30.566406
2534.491129	0.810377	-43.261719	-30.566406
2534.493129	0.828264	-43.261719	-30.566406
2534.495130	0.826200	9.088204	0.053192
2535.513683	0.693952	184.277344	183.886719
2535.515685	0.829409	184.277344	183.886719
2535.517685	0.827214	9.099354	-0.003115
2536.563727	0.404310	-41.992187	-29.589844
2536.565729	0.713705	-41.992187	-29.589844
2536.567727	0.830532	-41.992187	-29.589844
2536.569729	0.827900	9.106895	-0.001440
2537.589803	0.366628	184.570312	186.425781
2537.591804	0.680924	184.570312	186.425781
2537.593806	0.828773	184.570312	186.425781
2537.597802	0.825378	9.079157	-0.003450
2538.639885	0.403792	-40.625000	-27.929687
2538.641884	0.713388	-40.625000	-27.929687
2538.643887	0.831078	-40.625000	-27.929687
2538.645885	0.828404	9.112444	-0.002072
2539.667906	0.432527	183.886719	189.257812
2539.669908	0.735940	183.886719	189.257812
2539.671907	0.829778	183.886719	189.257812
2539.673908	0.827158	9.098742	-0.002464
2540.717949	0.662754	-40.722656	-28.515625
2540.719953	0.828436	-40.722656	-28.515625
2540.721953	0.827562	9.103183	-0.002180
2541.746005	0.496912	179.980469	191.210937
2541.748007	0.778135	179.980469	191.210937
2541.750007	0.828572	179.980469	191.210937
2541.752008	0.826193	9.088125	-0.002096
2542.794065	0.574715	-40.820312	-28.417969
2542.796067	0.812558	-40.820312	-28.417969
2542.798067	0.827970	-40.820312	-28.417969
2542.800067	0.825765	9.083410	0.095610
2543.822109	0.407314	179.101562	193.359375
2543.824113	0.715916	179.101562	193.359375
2543.826113	0.830058	179.101562	193.359375
2543.828111	0.827442	9.101862	-0.002419
2544.870202	0.412158	-40.917969	-28.710937
2544.872203	0.720052	-40.917969	-28.710937
2544.874204	0.831127	-40.917969	-28.710937
2544.876204	0.828298	9.111273	-0.002182
2545.900206	0.549605	178.417969	195.898437
2545.902207	0.803822	178.417969	195.898437
2545.904206	0.828321	178.417969	195.898437
2545.906207	0.826197	9.088169	-0.002500
2546.948198	0.577819	-41.308594	-28.417969
2546.950201	0.813738	-41.308594	-28.417969
2546.952200	0.828179	-41.308594	-28.417969
2546.954201	0.826225	9.088470	-0.002080
2547.980213	0.826017	176.464844	196.972656
2547.982216	0.827469	176.464844	196.972656
2547.984218	0.825697	9.082665	-0.002183
2549.024258	0.402463	-41.308594	-27.832031
2549.026259	0.712010	-41.308594	-27.832031
2549.028259	0.829853	-41.308594	-27.832031
2549.030261	0.827423	9.101658	-0.001781
2550.054357	0.514332	176.757812	198.535156
2550.056356	0.787726	176.757812	198.535156
2550.058358	0.828686	176.757812	198.535156
2550.060357	0.826482	9.091307	-0.002321
2551.100395	0.272331	-41.503906	-27.636719
2551.102396	0.592717	-41.503906	-27.636719
2551.104396	0.817675	-41.503906	-27.636719
2551.106396	0.827840	-41.503906	-27.636719
2551.108397	0.825885	9.084740	-0.003322
2552.132442	0.576308	170.996094	196.582031
2552.134445	0.812926	170.996094	196.582031
2552.136447	0.827689	170.996094	196.582031
2552.138446	0.825741	9.083154	-0.003107
2553.182456	0.821155	-42.089844	-27.148437
2553.184461	0.827339	-42.089844	-27.148437
2553.186460	0.825411	9.079520	0.276949
2554.208484	0.558517	184.375000	203.613281
2554.210485	0.806901	184.375000	203.613281
2554.214484	0.825720	184.375000	203.613281
2554.216485	0.824194	9.066129	-0.003124
2555.256464	0.425604	-44.238281	-28.515625
2555.260470	0.829544	-44.238281	-28.515625
2555.262474	0.826908	-44.238281	-28.515625
2555.264473	0.825355	9.078899	-0.001839
2556.288468	0.828426	173.242187	199.121094
2556.290469	0.826076	173.242187	199.121094
2556.292470	0.824322	9.067547	-0.003074
2557.334476	0.394161	-44.628906	-27.050781
2557.336477	0.705077	-44.628906	-27.050781
2557.340476	0.827820	-44.628906	-27.050781
2557.344475	0.825036	9.075398	-0.001464
2558.362486	0.761836	167.285156	197.460937
2558.364488	0.828733	167.285156	197.460937
2558.366488	0.826303	9.089331	-0.003126
2559.412937	0.435054	-46.484375	-28.222656
2559.414940	0.737419	-46.484375	-28.222656
2559.416938	0.828887	-46.484375	-28.222656
2559.418939	0.826285	9.089135	-0.001728
2560.439033	0.795395	165.527344	198.144531
2560.441033	0.828591	165.527344	198.144531
2560.443039	0.826452	9.090969	-0.003340
2561.491501	0.410006	-47.070312	-28.320312
2561.495502	0.830505	-47.070312	-28.320312
2561.497503	0.827998	-47.070312	-28.320312
2561.499507	0.826345	9.089800	-0.001264
2562.511566	0.394634	174.804687	205.957031
2562.513568	0.705286	174.804687	205.957031
2562.515566	0.829830	174.804687	205.957031
2562.517568	0.827524	9.102765	-0.002742
2563.570189	0.483929	-45.605469	-27.441406
2563.572191	0.770641	-45.605469	-27.441406
2563.576188	0.826316	-45.605469	-27.441406
2563.578191	0.824745	9.072190	-0.001349
2564.588250	0.437439	168.261719	206.347656
2564.590250	0.739255	168.261719	206.347656
2564.592252	0.829518	168.261719	206.347656
2564.594251	0.826836	9.095198	-0.002051
2565.650283	0.815619	-46.679687	-30.175781
2565.652285	0.827834	-46.679687	-30.175781
2565.654285	0.825848	9.084323	0.140697
2566.666855	0.730001	157.910156	206.250000
2566.668858	0.829380	157.910156	206.250000
2566.670857	0.826727	9.093992	-0.003707
2567.727309	0.826189	-43.652344	-27.636719
2567.729309	0.827605	9.103652	0.413349
2568.745347	0.803921	152.734375	209.277344
2568.747348	0.828257	152.734375	209.277344
2568.749348	0.826175	9.087921	-0.003811
2569.799831	0.342464	-46.582031	-31.152344
2569.803831	0.828082	-46.582031	-31.152344
2569.805832	0.827632	-46.582031	-31.152344
2569.807832	0.825773	9.083499	-0.001973
2570.820444	1.481943	152.343750	215.039062
2570.822447	0.344942	152.343750	215.039062
2570.824446	0.827905	152.343750	215.039062
2570.826446	0.828256	9.110813	-0.002757
2571.876414	0.451995	-46.875000	-30.859375
2571.878417	0.749591	-46.875000	-30.859375
2571.880417	0.828727	-46.875000	-30.859375
2571.884414	0.824476	9.069240	-0.002804
2572.899361	0.407418	151.074219	219.042969
2572.901362	0.716278	151.074219	219.042969
2572.903363	0.830985	151.074219	219.042969
2572.905363	0.828346	9.111805	-0.001738
2573.951433	0.307022	-45.507812	-28.222656
2573.953434	0.625514	-45.507812	-28.222656
2573.955432	0.825703	-45.507812	-28.222656
2573.957433	0.829050	-45.507812	-28.222656
2573.959433	0.827172	9.098892	-0.001828
2574.977531	0.359363	148.535156	219.531250
2574.979535	0.674397	148.535156	219.531250
2574.981535	0.828912	148.535156	219.531250
2574.983534	0.827494	9.102438	-0.002274
2576.027618	0.354161	-45.703125	-27.636719
2576.029620	0.669588	-45.703125	-27.636719
2576.031618	0.829189	-45.703125	-27.636719
2576.033619	0.827924	9.107162	-0.001644
2577.057649	0.731874	151.269531	221.093750
2577.061649	0.826996	151.269531	221.093750
2577.063650	0.825477	9.080246	-0.001817
2578.103605	0.325968	-45.898437	-26.953125
2578.105606	0.643240	-45.898437	-26.953125
2578.107607	0.826485	-45.898437	-26.953125
2578.109608	0.827331	9.100638	-0.001793
2579.133676	1.207459	154.199219	222.460937
2579.135678	0.789874	154.199219	222.460937
2579.137678	0.828321	154.199219	222.460937
2579.139676	0.826057	9.086627	-0.001997
2580.181706	0.554478	-48.632812	-29.687500
2580.183708	0.805613	-48.632812	-29.687500
2580.185707	0.828188	-48.632812	-29.687500
2580.187707	0.826103	9.087132	-0.002845
2581.209766	0.388047	159.472656	224.902344
2581.211766	0.699818	159.472656	224.902344
2581.213767	0.830519	159.472656	224.902344
2581.215767	0.828136	9.109492	-0.002748
2582.258308	0.504699	-47.753906	-27.832031
2582.260311	0.782578	-47.753906	-27.832031
2582.262310	0.828605	-47.753906	-27.832031
2582.264309	0.826182	9.088001	-0.001679
2583.286291	0.319366	155.371094	223.144531
2583.288300	0.636873	155.371094	223.144531
2583.290298	0.825682	155.371094	223.144531
2583.292299	0.827125	9.098370	-0.002487
2584.336330	0.632517	-46.386719	-25.292969
2584.338332	0.825392	-46.386719	-25.292969
2584.340332	0.827364	-46.386719	-25.292969
2584.342331	0.825470	9.080167	-0.002756
2585.364374	0.466586	153.808594	223.242187
2585.366377	0.759700	153.808594	223.242187
2585.368377	0.828863	153.808594	223.242187
2585.370377	0.826414	9.090553	-0.002568
2586.412371	0.456331	-48.046875	-26.660156
2586.414369	0.752759	-48.046875	-26.660156
2586.416369	0.828921	-48.046875	-26.660156
2586.420369	0.824721	9.071934	-0.002169
2587.440318	0.348439	153.613281	224.902344
2587.442321	0.664386	153.613281	224.902344
2587.444320	0.828733	153.613281	224.902344
2587.448317	0.826084	9.086920	-0.002433
2588.490434	0.593701	-46.875000	-24.511719
2588.492437	0.818127	-46.875000	-24.511719
2588.494435	0.828010	-46.875000	-24.511719
2588.496434	0.826239	9.088631	0.185563
2589.518510	0.510147	150.097656	225.585937
2589.520511	0.785390	150.097656	225.585937
2589.522512	0.828357	150.097656	225.585937
2589.526510	0.824521	9.069736	-0.002265
2590.566480	0.455661	-47.949219	-25.195312
2590.568482	0.752376	-47.949219	-25.195312
2590.570482	0.829384	-47.949219	-25.195312
2590.572482	0.826802	9.094825	-0.002805
2591.594461	0.311968	150.976562	229.296875
2591.596468	0.365287	150.976562	229.296875
2591.598464	0.826876	150.976562	229.296875
2591.600465	0.829575	150.976562	229.296875
2591.602463	0.827705	9.104751	-0.002719
