time (s)	coil I (A)	last det (V)	int current (uC)
927.790314	0.349216	3.808594	2.832031
927.792315	0.666783	3.808594	2.832031
927.796316	0.831773	3.808594	2.832031
927.798315	0.829738	9.127119	0.002769
928.822311	0.431924	76.367187	39.062500
928.824316	0.737519	76.367187	39.062500
928.828315	0.831527	76.367187	39.062500
928.830315	0.829705	9.126756	0.002751
929.870326	0.371993	2.929687	1.953125
929.872329	0.687560	2.929687	1.953125
929.874328	0.833589	2.929687	1.953125
929.876328	0.831714	9.148858	0.002788
930.895875	1.769768	75.195312	38.281250
930.903118	0.833389	75.195312	38.281250
930.905120	0.831335	9.144685	0.001783
931.949201	0.310709	2.734375	0.292969
931.951204	0.630827	2.734375	0.292969
931.953212	0.830683	2.734375	0.292969
931.955213	0.833688	2.734375	0.292969
931.957214	0.831888	9.150773	0.003308
932.977248	0.260433	74.707031	38.085937
932.979251	0.583496	74.707031	38.085937
932.981252	0.590841	74.707031	38.085937
932.983250	0.832672	74.707031	38.085937
932.987248	0.828890	9.117787	0.003317
934.027309	0.303585	2.832031	0.000000
934.029312	0.623667	2.832031	0.000000
934.031311	0.827951	2.832031	0.000000
934.033312	0.832100	2.832031	0.000000
934.037310	0.828723	9.115952	0.003180
935.057378	0.499395	73.437500	38.769531
935.059380	0.782358	73.437500	38.769531
935.061379	0.833435	73.437500	38.769531
935.065377	0.829396	9.123362	0.002598
936.105462	0.431594	3.222656	0.097656
936.107464	0.737042	3.222656	0.097656
936.109463	0.833629	3.222656	0.097656
936.111463	0.830931	9.140244	0.002911
937.137505	0.499586	76.464844	39.941406
937.139506	0.782135	76.464844	39.941406
937.141505	0.832663	76.464844	39.941406
937.143505	0.830184	9.132029	0.002634
938.181541	0.303908	3.027344	-1.757812
938.183544	0.624038	3.027344	-1.757812
938.185543	0.828187	3.027344	-1.757812
938.187545	0.832407	3.027344	-1.757812
938.189544	0.830222	9.132445	0.001814
939.219633	0.810589	75.976562	40.039062
939.221634	0.832239	75.976562	40.039062
939.223633	0.829919	9.129113	0.001723
940.258099	0.272932	3.320312	-1.171875
940.260101	0.595220	3.320312	-1.171875
940.262102	0.821613	3.320312	-1.171875
940.264100	0.832124	3.320312	-1.171875
940.266100	0.829820	9.128015	0.002033
941.296097	0.334658	90.917969	43.164062
941.298095	0.652830	90.917969	43.164062
941.300095	0.831964	90.917969	43.164062
941.302096	0.832320	9.155523	0.002207
942.336170	0.302935	4.101562	1.171875
942.338170	0.623171	4.101562	1.171875
942.342170	0.832077	4.101562	1.171875
942.344170	0.829941	4.101562	1.171875
942.346170	0.828768	9.116448	0.003057
943.376190	0.603722	89.746094	41.699219
943.380190	0.831650	89.746094	41.699219
943.382190	0.829449	89.746094	41.699219
943.384190	0.828203	9.110236	0.224691
944.418809	0.793764	3.417969	-0.195312
944.420811	0.796878	3.417969	-0.195312
944.422812	0.830196	9.132161	0.002391
945.454875	0.801226	81.738281	39.355469
945.456877	0.832728	81.738281	39.355469
945.458877	0.830317	9.133492	0.001937
946.495330	0.304053	3.222656	0.000000
946.497329	0.624029	3.222656	0.000000
946.499330	0.827589	3.222656	0.000000
946.501332	0.831653	3.222656	0.000000
946.503331	0.829495	9.124442	0.002533
947.529396	0.492671	89.746094	40.527344
947.531398	0.778493	89.746094	40.527344
947.533398	0.833397	89.746094	40.527344
947.537395	0.829137	9.120508	0.002554
948.576053	0.432986	3.710937	0.683594
948.578055	0.737884	3.710937	0.683594
948.580056	0.833678	3.710937	0.683594
948.582054	0.830921	9.140129	0.003323
949.608101	0.749590	84.765625	39.160156
949.610103	0.833335	84.765625	39.160156
949.612103	0.830595	9.136539	0.003543
950.656182	0.543722	3.125000	-1.074219
950.660181	0.832171	3.125000	-1.074219
950.664181	0.828300	3.125000	-1.074219
950.666184	0.827362	9.100984	0.003364
951.684208	0.461700	90.527344	39.941406
951.686209	0.758433	90.527344	39.941406
951.688207	0.832918	90.527344	39.941406
951.690211	0.830072	9.130788	0.002561
952.737173	0.824086	2.343750	-2.929687
952.739178	0.831884	2.343750	-2.929687
952.741175	0.829730	9.127030	0.247028
953.763717	0.597140	87.500000	39.746094
953.765720	0.821782	87.500000	39.746094
953.767719	0.831602	87.500000	39.746094
953.769719	0.829318	9.122494	0.198300
954.812316	0.460008	2.636719	-3.027344
954.816316	0.833609	2.636719	-3.027344
954.818318	0.830781	2.636719	-3.027344
954.820318	0.829144	9.120579	0.002498
955.842321	0.586478	81.250000	38.378906
955.844325	0.819157	81.250000	38.378906
955.846322	0.832008	81.250000	38.378906
955.848323	0.829709	9.126801	0.143305
956.890387	0.438492	3.027344	-3.320312
956.892389	0.451210	3.027344	-3.320312
956.894389	0.833899	3.027344	-3.320312
956.896389	0.831217	9.143391	0.003244
957.920436	0.493219	85.156250	39.550781
957.922441	0.778342	85.156250	39.550781
957.924440	0.832593	85.156250	39.550781
957.926440	0.829960	9.129565	0.002549
958.968454	0.476195	3.222656	-3.125000
958.970455	0.767901	3.222656	-3.125000
958.972455	0.771204	3.222656	-3.125000
958.974457	0.829717	9.126888	0.003101
959.998479	0.406219	84.765625	39.257812
960.000481	0.717088	84.765625	39.257812
960.002481	0.834189	84.765625	39.257812
960.004488	0.831677	9.148451	0.002088
961.046475	0.435317	3.613281	-2.832031
961.048477	0.739760	3.613281	-2.832031
961.050476	0.833617	3.613281	-2.832031
961.052478	0.830823	9.139057	0.001710
962.076508	0.311997	88.964844	40.136719
962.078514	0.631476	88.964844	40.136719
962.080511	0.829905	88.964844	40.136719
962.082510	0.832926	88.964844	40.136719
962.084508	0.831044	9.141485	0.002705
963.124569	0.355669	3.222656	-3.320312
963.126570	0.672703	3.222656	-3.320312
963.128570	0.833143	3.222656	-3.320312
963.130570	0.832054	9.152598	0.002893
964.156586	0.622206	86.328125	39.257812
964.158588	0.827038	86.328125	39.257812
964.160588	0.831380	86.328125	39.257812
964.162588	0.829131	9.120438	0.327291
965.202611	0.286027	3.417969	-3.808594
965.204613	0.607220	3.417969	-3.808594
965.206612	0.824356	3.417969	-3.808594
965.208612	0.831763	3.417969	-3.808594
965.210612	0.829699	9.126685	0.001884
966.232675	0.315077	88.085937	38.964844
966.234701	0.634494	88.085937	38.964844
966.236699	0.830466	88.085937	38.964844
966.238697	0.832614	9.158749	0.002499
967.282704	0.477395	2.832031	-4.687500
967.284706	0.768694	2.832031	-4.687500
967.286705	0.832966	2.832031	-4.687500
967.288704	0.830232	9.132551	0.003039
968.310763	0.349150	89.062500	38.281250
968.312766	0.666384	89.062500	38.281250
968.314764	0.832328	89.062500	38.281250
968.316766	0.831642	9.148061	0.003076
969.360823	0.402821	1.757812	-5.566406
969.362825	0.714150	1.757812	-5.566406
969.364824	0.834445	1.757812	-5.566406
969.366826	0.831995	9.151942	0.003418
970.388842	0.327309	88.183594	36.914062
970.390845	0.646274	88.183594	36.914062
970.392844	0.830261	88.183594	36.914062
970.394844	0.831095	9.142043	0.002972
971.438865	0.354727	1.660156	-5.371094
971.440871	0.671566	1.660156	-5.371094
971.442870	0.683786	1.660156	-5.371094
971.444871	0.832265	9.154921	0.003531
972.468965	0.552068	92.285156	37.402344
972.470967	0.807611	92.285156	37.402344
972.472968	0.832559	92.285156	37.402344
972.474966	0.830184	9.132029	0.003415
973.519074	0.749023	2.539062	-3.906250
973.523073	0.830006	2.539062	-3.906250
973.525076	0.828349	9.111840	0.002827
974.547084	0.405666	94.433594	38.183594
974.549081	0.716570	94.433594	38.183594
974.551081	0.834358	94.433594	38.183594
974.553080	0.831831	9.150144	0.002821
975.593059	0.292644	2.832031	-2.734375
975.595062	0.613450	2.832031	-2.734375
975.597063	0.826239	2.832031	-2.734375
975.599061	0.832569	2.832031	-2.734375
975.601060	0.830478	9.135255	0.001876
976.627130	0.413945	95.605469	39.062500
976.629132	0.723188	95.605469	39.062500
976.631133	0.834233	95.605469	39.062500
976.633134	0.831669	9.148362	0.002708
977.671231	0.485020	4.394531	-1.269531
977.673234	0.773342	4.394531	-1.269531
977.675234	0.832344	4.394531	-1.269531
977.677234	0.829725	9.126977	0.001788
978.707310	0.503415	102.734375	40.625000
978.709311	0.784197	102.734375	40.625000
978.711311	0.832785	102.734375	40.625000
978.713311	0.830151	9.131666	0.003117
979.747347	0.334132	3.222656	-4.785156
979.749349	0.652503	3.222656	-4.785156
979.751350	0.831897	3.222656	-4.785156
979.753353	0.832273	9.155000	0.002254
980.787366	0.652096	97.558594	39.941406
980.789367	0.830740	97.558594	39.941406
980.791369	0.831042	9.141467	0.002323
981.827396	0.677631	3.613281	-5.371094
981.829397	0.832788	3.613281	-5.371094
981.831398	0.831362	9.144977	0.002353
982.865946	0.724750	96.582031	40.136719
982.867947	0.833852	96.582031	40.136719
982.869948	0.831212	9.143329	0.002431
983.905963	0.643479	4.101562	-4.199219
983.907965	0.830240	4.101562	-4.199219
983.909964	0.831415	9.145570	0.001572
984.942444	0.612890	100.781250	40.820312
984.944446	0.825603	100.781250	40.820312
984.946448	0.831793	100.781250	40.820312
984.950444	0.828325	9.111575	0.003401
985.984523	0.513861	2.636719	-7.812500
985.986524	0.789881	2.636719	-7.812500
985.988525	0.832620	2.636719	-7.812500
985.990526	0.830027	9.130301	0.002672
987.019148	0.585875	93.652344	38.964844
987.021151	0.818735	93.652344	38.964844
987.023151	0.831572	93.652344	38.964844
987.025149	0.829330	9.122625	0.134614
988.063172	0.339882	2.832031	-6.835937
988.065173	0.657863	2.832031	-6.835937
988.067173	0.831817	2.832031	-6.835937
988.069173	0.831746	9.149204	0.002076
989.095192	0.416674	97.070312	39.062500
989.097193	0.725634	97.070312	39.062500
989.099194	0.834581	97.070312	39.062500
989.101195	0.831979	9.151774	0.002985
990.143223	0.462363	2.539062	-7.128906
990.145224	0.758869	2.539062	-7.128906
990.147227	0.832742	2.539062	-7.128906
990.149230	0.830053	9.130584	0.002090
991.173710	0.585729	95.019531	37.890625
991.175712	0.818559	95.019531	37.890625
991.177712	0.831439	95.019531	37.890625
991.181710	0.827976	9.107738	0.131191
992.221767	0.401637	2.148437	-7.714844
992.223768	0.713181	2.148437	-7.714844
992.225770	0.834031	2.148437	-7.714844
992.227770	0.831578	9.147361	0.001927
993.249891	0.324703	101.171875	38.281250
993.251893	0.643218	101.171875	38.281250
993.253892	0.830911	101.171875	38.281250
993.255893	0.832260	9.154859	0.001918
994.299909	0.340291	1.660156	-8.984375
994.301912	0.658341	1.660156	-8.984375
994.303911	0.832319	1.660156	-8.984375
994.305911	0.832307	9.155381	0.003118
995.327929	0.328650	97.753906	37.109375
995.329932	0.647232	97.753906	37.109375
995.331932	0.831141	97.753906	37.109375
995.333932	0.832023	9.152252	0.002175
996.377961	0.346839	1.855469	-8.398437
996.379964	0.664576	1.855469	-8.398437
996.381963	0.832235	1.855469	-8.398437
996.383964	0.831699	9.148690	0.002069
997.408045	0.590957	102.050781	37.500000
997.410045	0.820467	102.050781	37.500000
997.414045	0.829889	102.050781	37.500000
997.416045	0.828530	9.113834	0.167017
998.456076	0.352960	1.660156	-8.105469
998.458078	0.670022	1.660156	-8.105469
998.460078	0.832539	1.660156	-8.105469
998.462078	0.831515	9.146669	0.002181
999.486068	0.551873	100.976562	37.597656
999.490067	0.831644	100.976562	37.597656
999.492066	0.829367	100.976562	37.597656
999.496067	0.827949	9.107436	0.002361
1000.536144	0.667867	1.269531	-10.644531
1000.538152	0.832614	1.269531	-10.644531
1000.540156	0.831745	9.149196	0.002652
1001.564750	0.616730	106.542969	37.597656
1001.566750	0.825736	106.542969	37.597656
1001.568751	0.831075	106.542969	37.597656
1001.570752	0.828863	9.117495	0.296264
1002.614766	0.734851	1.464844	-9.570312
1002.616768	0.833198	1.464844	-9.570312
1002.618768	0.830414	9.134555	0.003118
1003.642788	0.588982	105.566406	37.500000
1003.644789	0.819441	105.566406	37.500000
1003.646788	0.831313	105.566406	37.500000
1003.648789	0.829032	9.119356	0.147637
1004.690833	0.375150	1.562500	-9.277344
1004.692836	0.690244	1.562500	-9.277344
1004.694835	0.833850	1.562500	-9.277344
1004.696836	0.831934	9.151278	0.002589
1005.718876	0.459980	104.980469	37.597656
1005.720882	0.757211	104.980469	37.597656
1005.722880	0.833313	104.980469	37.597656
1005.724882	0.830517	9.135689	0.002484
1006.772891	0.823459	1.562500	-10.937500
1006.776891	0.829105	1.562500	-10.937500
1006.778893	0.827895	9.106842	0.235509
1007.798952	0.610834	100.097656	36.621094
1007.800953	0.824730	100.097656	36.621094
1007.802954	0.831073	100.097656	36.621094
1007.804954	0.828907	9.117983	0.001831
1008.846980	0.276132	1.367187	-11.621094
1008.848981	0.597667	1.367187	-11.621094
1008.850983	0.822689	1.367187	-11.621094
1008.852982	0.832737	1.367187	-11.621094
1008.854982	0.830545	9.135999	0.002599
1009.875048	0.283021	101.660156	37.011719
1009.877048	0.604321	101.660156	37.011719
1009.879049	0.823476	101.660156	37.011719
1009.881049	0.831578	101.660156	37.011719
1009.883049	0.829394	9.123335	0.001932
1010.925032	0.272108	1.367187	-12.207031
1010.927039	0.594002	1.367187	-12.207031
1010.929043	0.821252	1.367187	-12.207031
1010.933042	0.829242	1.367187	-12.207031
1010.935044	0.829197	9.121163	0.003203
1011.955054	0.572538	103.027344	37.207031
1011.957055	0.814684	103.027344	37.207031
1011.959057	0.831716	103.027344	37.207031
1011.961056	0.829377	9.123149	0.075155
1013.005021	0.548941	1.464844	-12.695312
1013.007024	0.805845	1.464844	-12.695312
1013.009023	0.831803	1.464844	-12.695312
1013.011029	0.829429	9.123716	0.002593
1014.033086	0.595196	105.468750	38.281250
1014.035088	0.821634	105.468750	38.281250
1014.037087	0.832064	105.468750	38.281250
1014.039087	0.829853	9.128386	0.182735
1015.081141	0.361188	2.636719	-11.132812
1015.083143	0.677539	2.636719	-11.132812
1015.087141	0.830873	2.636719	-11.132812
1015.089144	0.829058	9.119639	0.001476
1016.111205	0.389695	107.324219	39.355469
1016.113207	0.702784	107.324219	39.355469
1016.115207	0.833630	107.324219	39.355469
1016.117206	0.831411	9.145526	0.002792
1017.159241	0.534487	2.734375	-11.132812
1017.161243	0.799693	2.734375	-11.132812
1017.165242	0.829622	2.734375	-11.132812
1017.167244	0.828238	9.110618	0.002559
1018.191336	0.530126	111.328125	39.453125
1018.193336	0.797599	111.328125	39.453125
1018.195336	0.831934	111.328125	39.453125
1018.197337	0.829502	9.124522	0.002470
1019.235335	0.456272	1.464844	-14.746094
1019.237336	0.754572	1.464844	-14.746094
1019.239337	0.832906	1.464844	-14.746094
1019.241336	0.830017	9.130185	0.001746
1020.269421	0.315169	110.253906	39.160156
1020.273435	0.830015	110.253906	39.160156
1020.275437	0.832381	110.253906	39.160156
1020.277437	0.830294	9.133234	0.000973
1021.313475	0.646303	1.464844	-14.257812
1021.317476	0.830417	1.464844	-14.257812
1021.319478	0.828447	9.112913	0.001422
1022.350047	0.581217	112.988281	38.378906
1022.352049	0.817100	112.988281	38.378906
1022.354051	0.831391	112.988281	38.378906
1022.358049	0.827905	9.106957	0.001696
1023.390103	0.508140	1.562500	-12.890625
1023.392104	0.786280	1.562500	-12.890625
1023.394106	0.831986	1.562500	-12.890625
1023.396105	0.829333	9.122662	0.002089
1024.428705	0.561188	131.347656	40.332031
1024.430707	0.810321	131.347656	40.332031
1024.432707	0.831080	131.347656	40.332031
1024.434707	0.828769	9.116458	0.001965
1025.466729	0.336796	2.343750	-10.351562
1025.470729	0.831582	2.343750	-10.351562
1025.472735	0.831797	2.343750	-10.351562
1025.474740	0.829801	9.127810	0.001214
1026.504747	0.471859	125.195312	38.671875
1026.506749	0.765179	125.195312	38.671875
1026.508748	0.832991	125.195312	38.671875
1026.510749	0.830184	9.132029	0.002663
1027.544756	0.412204	0.878906	-13.964844
1027.546759	0.721814	0.878906	-13.964844
1027.550755	0.831968	0.878906	-13.964844
1027.552758	0.830061	9.130673	0.001403
1028.581721	0.630866	128.515625	38.476562
1028.583727	0.829222	128.515625	38.476562
1028.585727	0.832257	128.515625	38.476562
1028.587728	0.830126	9.131382	0.002489
1029.622316	1.776834	1.660156	-11.230469
1029.624318	0.675498	1.660156	-11.230469
1029.626319	0.832676	1.660156	-11.230469
1029.628318	0.831347	9.144817	0.001042
1030.656338	0.468843	127.050781	37.988281
1030.658342	0.763048	127.050781	37.988281
1030.660341	0.833126	127.050781	37.988281
1030.662340	0.830360	9.133961	0.002273
1031.700935	0.444895	0.683594	-12.890625
1031.702936	0.746480	0.683594	-12.890625
1031.704936	0.832400	0.683594	-12.890625
1031.706936	0.829550	9.125045	0.001640
1032.733010	0.519714	120.996094	37.109375
1032.735014	0.792383	120.996094	37.109375
1032.737013	0.831756	120.996094	37.109375
1032.739014	0.829173	9.120907	0.003026
1033.779049	0.469877	1.074219	-13.378906
1033.781053	0.763625	1.074219	-13.378906
1033.783053	0.832307	1.074219	-13.378906
1033.787051	0.828045	9.108500	0.002810
1034.809068	0.520803	122.851562	37.207031
1034.811070	0.792658	122.851562	37.207031
1034.813071	0.831473	122.851562	37.207031
1034.815070	0.828920	9.118114	0.002540
1035.857130	0.521334	0.976562	-14.453125
1035.859130	0.793526	0.976562	-14.453125
1035.861130	0.832351	0.976562	-14.453125
1035.863136	0.829836	9.128192	0.002530
1036.885123	0.327929	124.414062	37.695312
1036.887125	0.646325	124.414062	37.695312
1036.889126	0.831223	124.414062	37.695312
1036.891125	0.832226	9.154486	0.002412
1037.933199	0.395765	1.269531	-14.843750
1037.935199	0.708010	1.269531	-14.843750
1037.937201	0.712973	1.269531	-14.843750
1037.939201	0.831507	9.146572	0.002411
1038.963294	0.460539	127.734375	37.988281
1038.967296	0.832380	127.734375	37.988281
1038.969297	0.829588	127.734375	37.988281
1038.971297	0.828024	9.108269	0.002667
1040.011298	0.660425	1.464844	-14.355469
1040.013299	0.831234	1.464844	-14.355469
1040.015299	0.830762	9.138383	0.001674
1041.041317	0.569501	124.902344	37.597656
1041.045314	0.831434	124.902344	37.597656
1041.047317	0.829256	124.902344	37.597656
1041.049316	0.827840	9.106239	0.058515
1042.087336	0.421022	1.464844	-14.746094
1042.089337	0.728607	1.464844	-14.746094
1042.091338	0.833671	1.464844	-14.746094
1042.093336	0.830915	9.140067	0.002375
1043.117356	0.380190	127.539062	37.890625
1043.119356	0.694485	127.539062	37.890625
1043.121356	0.833733	127.539062	37.890625
1043.123356	0.831571	9.147281	0.003049
1044.165460	0.740124	1.855469	-13.671875
1044.167463	0.833563	1.855469	-13.671875
1044.169463	0.830814	9.138950	0.001197
1045.197949	0.765130	133.398437	38.378906
1045.199951	0.832229	133.398437	38.378906
1045.201951	0.829482	9.124301	0.002660
1046.239971	0.530720	1.757812	-14.160156
1046.241972	0.798022	1.757812	-14.160156
1046.243972	0.832265	1.757812	-14.160156
1046.247971	0.828434	9.112771	0.001883
1047.273998	0.427154	136.523437	38.867187
1047.276000	0.733185	136.523437	38.867187
1047.278001	0.833131	136.523437	38.867187
1047.280000	0.830236	9.132596	0.002255
1048.316017	0.463175	1.660156	-16.308594
1048.318018	0.759288	1.660156	-16.308594
1048.320018	0.832676	1.660156	-16.308594
1048.322018	0.829943	9.129371	0.002516
1049.352590	0.527564	146.972656	40.234375
1049.354591	0.796175	146.972656	40.234375
1049.356591	0.831639	146.972656	40.234375
1049.358592	0.829127	9.120393	0.001429
1050.391486	0.277350	2.734375	-14.746094
1050.393487	0.598931	2.734375	-14.746094
1050.395487	0.822133	2.734375	-14.746094
1050.397487	0.831490	2.734375	-14.746094
1050.399489	0.829345	9.122794	0.001752
1051.429524	0.366147	135.351562	39.843750
1051.431525	0.681912	135.351562	39.843750
1051.433526	0.832338	135.351562	39.843750
1051.435526	0.830575	9.136327	0.002518
1052.469579	0.535922	2.246094	-18.457031
1052.471582	0.800033	2.246094	-18.457031
1052.473582	0.831420	2.246094	-18.457031
1052.475584	0.828939	9.118328	0.001354
1053.510149	0.827759	134.667969	39.257812
1053.512152	0.831787	134.667969	39.257812
1053.514151	0.829591	9.125506	0.002174
1054.546211	0.251168	0.976562	-20.800781
1054.548213	0.574245	0.976562	-20.800781
1054.550213	0.814862	0.976562	-20.800781
1054.552215	0.831222	0.976562	-20.800781
1054.554213	0.829027	9.119293	0.002000
1055.587167	0.781058	130.175781	39.160156
1055.589169	0.784834	130.175781	39.160156
1055.591167	0.829800	9.127802	0.001620
1056.627192	0.563196	1.660156	-18.261719
1056.629194	0.810985	1.660156	-18.261719
1056.631193	0.831102	1.660156	-18.261719
1056.633195	0.828845	9.117290	0.015861
1057.663235	0.686597	141.992187	40.527344
1057.665237	0.832017	141.992187	40.527344
1057.667236	0.830035	9.130381	0.002309
1058.705801	0.557294	1.074219	-21.679687
1058.707802	0.809564	1.074219	-21.679687
1058.709801	0.832386	1.074219	-21.679687
1058.711803	0.830049	9.130540	0.002488
1059.741847	0.812873	139.355469	39.941406
1059.743847	0.831530	139.355469	39.941406
1059.745849	0.829240	9.121642	0.049290
1060.784456	0.556127	0.683594	-21.093750
1060.786459	0.808776	0.683594	-21.093750
1060.788459	0.831856	0.683594	-21.093750
1060.790459	0.829528	9.124806	0.002159
1061.816488	0.570237	138.769531	39.355469
1061.818488	0.813456	138.769531	39.355469
1061.820490	0.831159	138.769531	39.355469
1061.822490	0.828872	9.117592	0.060873
1062.862544	0.375688	0.683594	-21.875000
1062.864550	0.690451	0.683594	-21.875000
1062.866549	0.833101	0.683594	-21.875000
1062.868549	0.831083	9.141911	0.001768
1063.892587	0.401197	136.035156	38.378906
1063.894590	0.712377	136.035156	38.378906
1063.896591	0.833382	136.035156	38.378906
1063.898590	0.830868	9.139553	0.001709
1064.940562	1.704763	-0.097656	-23.535156
1064.942564	0.618124	-0.097656	-23.535156
1064.944564	0.825846	-0.097656	-23.535156
1064.946563	0.830604	-0.097656	-23.535156
1064.948564	0.828609	9.114703	0.002298
1065.970580	0.496708	129.882812	37.207031
1065.972582	0.779970	129.882812	37.207031
1065.976583	0.829289	129.882812	37.207031
1065.978586	0.827747	9.105220	0.002012
1067.020640	0.499053	0.097656	-23.339844
1067.022641	0.781699	0.097656	-23.339844
1067.024641	0.832579	0.097656	-23.339844
1067.026642	0.829865	9.128510	0.002328
1068.046741	0.311369	130.664062	37.207031
1068.048750	0.630710	130.664062	37.207031
1068.050745	0.830488	130.664062	37.207031
1068.052747	0.833769	130.664062	37.207031
1068.054748	0.831799	9.149789	0.001273
1069.100843	0.785807	0.097656	-22.656250
1069.102846	0.832060	0.097656	-22.656250
1069.104847	0.829450	9.123946	0.002054
1070.124889	0.406902	132.714844	36.816406
1070.126891	0.717329	132.714844	36.816406
1070.128891	0.833791	132.714844	36.816406
1070.132889	0.829392	9.123318	0.001915
1071.176860	0.537589	-0.585937	-24.121094
1071.178863	0.800611	-0.585937	-24.121094
1071.180861	0.831535	-0.585937	-24.121094
1071.182862	0.829092	9.120011	0.002474
1072.202913	0.354603	132.128906	36.816406
1072.204915	0.671162	132.128906	36.816406
1072.206913	0.831998	132.128906	36.816406
1072.208914	0.830859	9.139446	0.001130
1073.254980	0.594500	0.390625	-22.558594
1073.256982	0.820719	0.390625	-22.558594
1073.258982	0.831102	0.390625	-22.558594
1073.262981	0.827698	9.104680	0.001325
1074.283005	0.702429	150.195312	38.574219
1074.285009	0.832850	150.195312	38.574219
1074.287007	0.830331	9.133642	0.000849
1075.331960	0.503086	-0.878906	-27.539062
1075.333961	0.783479	-0.878906	-27.539062
1075.335962	0.831572	-0.878906	-27.539062
1075.337962	0.828926	9.118186	0.001457
1076.360929	0.747218	140.332031	37.695312
1076.362931	0.832458	140.332031	37.695312
1076.364931	0.829641	9.126047	0.001941
1077.408916	0.427286	-0.292969	-25.390625
1077.410919	0.733282	-0.292969	-25.390625
1077.412919	0.832811	-0.292969	-25.390625
1077.414923	0.830009	9.130096	0.002527
1078.436932	0.372649	137.988281	37.304687
1078.442932	0.830909	137.988281	37.304687
1078.444934	0.829102	137.988281	37.304687
1078.446936	0.827958	9.107542	0.002710
1079.486991	0.404880	-0.292969	-24.023437
1079.488991	0.715480	-0.292969	-24.023437
1079.490991	0.833351	-0.292969	-24.023437
1079.492992	0.830801	9.138808	0.002473
1080.515014	0.352281	138.769531	37.792969
1080.517014	0.669104	138.769531	37.792969
1080.519016	0.832377	138.769531	37.792969
1080.521015	0.831469	9.146155	0.002056
1081.565023	0.519294	0.195312	-25.292969
1081.567026	0.791931	0.195312	-25.292969
1081.569026	0.831386	0.195312	-25.292969
1081.571025	0.828862	9.117486	0.002795
1082.592995	0.314337	135.644531	37.695312
1082.595015	0.633345	135.644531	37.695312
1082.597014	0.828638	135.644531	37.695312
1082.599014	0.830745	135.644531	37.695312
1082.601014	0.828674	9.115412	0.000851
1083.643063	0.573451	0.292969	-24.902344
1083.645066	0.590256	0.292969	-24.902344
1083.647065	0.831001	0.292969	-24.902344
1083.649063	0.828693	9.115624	0.084933
1084.675109	0.825900	141.113281	38.671875
1084.677111	0.830873	141.113281	38.671875
1084.679111	0.828768	9.116448	0.299196
1085.719157	0.380729	0.488281	-26.074219
1085.721160	0.694806	0.488281	-26.074219
1085.725158	0.830570	0.488281	-26.074219
1085.727160	0.828731	9.116041	0.002462
1086.751215	0.560150	145.898437	39.257812
1086.753218	0.809833	145.898437	39.257812
1086.757218	0.828833	145.898437	39.257812
1086.759219	0.827566	9.103227	0.002264
1087.797260	0.527441	0.781250	-23.730469
1087.799263	0.795995	0.781250	-23.730469
1087.801263	0.831505	0.781250	-23.730469
1087.803262	0.829106	9.120171	0.001555
1088.829311	1.812229	150.683594	40.039062
1088.831313	0.794694	150.683594	40.039062
1088.833314	0.831043	150.683594	40.039062
1088.835313	0.828607	9.114676	0.001962
1089.873371	0.438610	0.781250	-24.707031
1089.875373	0.741870	0.781250	-24.707031
1089.877373	0.833482	0.781250	-24.707031
1089.879374	0.830796	9.138756	0.002506
1090.909333	0.649791	158.105469	41.113281
1090.911337	0.829663	158.105469	41.113281
1090.913338	0.829873	9.128599	0.002528
1091.949968	0.426843	1.464844	-23.730469
1091.951971	0.733100	1.464844	-23.730469
1091.953970	0.833836	1.464844	-23.730469
1091.955969	0.831092	9.142008	0.001694
1092.986021	0.281359	159.082031	41.406250
1092.988023	0.602605	159.082031	41.406250
1092.990023	0.822715	159.082031	41.406250
1092.992024	0.831144	159.082031	41.406250
1092.994022	0.828905	9.117955	0.002250
1094.028070	0.612355	0.683594	-26.953125
1094.030072	0.824632	0.683594	-26.953125
1094.032073	0.830752	0.683594	-26.953125
1094.034071	0.828632	9.114951	0.001638
1095.066666	0.653852	151.562500	40.234375
1095.068667	0.830632	151.562500	40.234375
1095.070668	0.830645	9.137098	0.001005
1096.106694	0.745727	2.050781	-21.582031
1096.110694	0.829722	2.050781	-21.582031
1096.112697	0.828083	9.108916	0.000681
1097.144677	0.681682	165.039062	41.113281
1097.146680	0.831554	165.039062	41.113281
1097.148681	0.829776	9.127536	0.002092
1098.183285	0.482114	1.757812	-21.679687
1098.185285	0.771167	1.757812	-21.679687
1098.187286	0.831826	1.757812	-21.679687
1098.189285	0.829135	9.120490	0.001519
1099.219332	0.363214	163.964844	40.332031
1099.221334	0.679121	163.964844	40.332031
1099.223335	0.831628	163.964844	40.332031
1099.225334	0.829865	9.128519	0.002190
1100.265371	0.828809	0.585937	-26.171875
1100.267373	0.830474	0.585937	-26.171875
1100.269376	0.828446	9.112904	0.000761
1101.295957	0.312816	171.777344	40.527344
1101.297964	0.631961	171.777344	40.527344
1101.299962	0.829791	171.777344	40.527344
1101.301961	0.832709	171.777344	40.527344
1101.303963	0.830624	9.136859	0.001213
1102.340007	0.303881	0.000000	-24.609375
1102.342009	0.623331	0.000000	-24.609375
1102.344010	0.827290	0.000000	-24.609375
1102.346009	0.831418	0.000000	-24.609375
1102.348009	0.829298	9.122280	0.001935
1103.374091	0.486716	156.835937	38.476562
1103.376091	0.773858	156.835937	38.476562
1103.378091	0.831642	156.835937	38.476562
1103.380092	0.828965	9.118611	0.002203
1104.418149	0.293276	0.000000	-24.218750
1104.420150	0.613533	0.000000	-24.218750
1104.422151	0.825058	0.000000	-24.218750
1104.424150	0.830955	0.000000	-24.218750
1104.426151	0.828766	9.116423	0.001703
1105.454146	0.817840	156.250000	38.183594
1105.456148	0.831677	156.250000	38.183594
1105.458147	0.829320	9.122519	0.124427
1106.498224	0.533603	-0.195312	-24.707031
1106.500227	0.798882	-0.195312	-24.707031
1106.502228	0.831335	-0.195312	-24.707031
1106.504227	0.828961	9.118576	0.000726
1107.528242	0.474341	159.179687	37.890625
1107.530242	0.766286	159.179687	37.890625
1107.532242	0.832354	159.179687	37.890625
1107.534242	0.829583	9.125409	0.002018
1108.576296	0.489020	-0.390625	-25.585937
1108.578297	0.775429	-0.390625	-25.585937
1108.580297	0.831751	-0.390625	-25.585937
1108.582296	0.829024	9.119267	0.001576
1109.604388	0.300773	158.300781	37.890625
1109.606387	0.620625	158.300781	37.890625
1109.608387	0.826125	158.300781	37.890625
1109.610389	0.830549	158.300781	37.890625
1109.612386	0.828498	9.113480	0.001811
1110.654415	0.374312	-0.488281	-26.757812
1110.656418	0.689127	-0.488281	-26.757812
1110.658417	0.833066	-0.488281	-26.757812
1110.660417	0.831173	9.142903	0.000922
1111.682476	0.410219	153.515625	37.304687
1111.684478	0.719846	153.515625	37.304687
1111.686478	0.834117	153.515625	37.304687
1111.688478	0.831498	9.146475	0.002579
1112.732573	0.386571	-1.464844	-30.859375
1112.734573	0.700029	-1.464844	-30.859375
1112.736573	0.833426	-1.464844	-30.859375
1112.738575	0.831179	9.142964	0.002445
1113.760608	0.517606	153.808594	37.207031
1113.762609	0.791103	153.808594	37.207031
1113.764611	0.794439	153.808594	37.207031
1113.766610	0.828901	9.117911	0.001536
1114.810640	0.405650	-0.878906	-29.589844
1114.814640	0.833099	-0.878906	-29.589844
1114.816642	0.830409	-0.878906	-29.589844
1114.818641	0.828660	9.115261	0.001402
1115.838723	0.604388	156.933594	37.890625
1115.840725	0.822956	156.933594	37.890625
1115.842724	0.830768	156.933594	37.890625
1115.844723	0.828591	9.114500	0.228876
1116.888779	0.514746	-1.171875	-29.785156
1116.890780	0.789664	-1.171875	-29.785156
1116.892782	0.831537	-1.171875	-29.785156
1116.894782	0.828997	9.118966	0.001783
1117.916819	0.567618	172.167969	39.160156
1117.918821	0.812383	172.167969	39.160156
1117.920821	0.830915	172.167969	39.160156
1117.922821	0.828590	9.114491	0.001182
1118.967407	0.662135	-1.269531	-32.812500
1118.969408	0.830942	-1.269531	-32.812500
1118.971409	0.830389	9.134280	0.001119
1119.993941	0.435892	169.335937	38.769531
1119.995944	0.739695	169.335937	38.769531
1119.997944	0.832464	169.335937	38.769531
1119.999944	0.829654	9.126198	0.001580
1121.042517	0.267851	-1.171875	-30.957031
1121.044520	0.589494	-1.171875	-30.957031
1121.046519	0.819022	-1.171875	-30.957031
1121.048519	0.830560	-1.171875	-30.957031
1121.050519	0.828465	9.113117	0.001750
1122.072515	0.514097	155.566406	37.695312
1122.074516	0.789257	155.566406	37.695312
1122.076518	0.831275	155.566406	37.695312
1122.078520	0.828824	9.117061	0.001971
1123.120546	0.387693	-0.878906	-28.710937
1123.122546	0.700925	-0.878906	-28.710937
1123.124549	0.832373	-0.878906	-28.710937
1123.126548	0.829888	9.128768	0.002261
1124.150557	0.489188	159.667969	37.695312
1124.152560	0.775401	159.667969	37.695312
1124.154560	0.831526	159.667969	37.695312
1124.156559	0.828849	9.117344	0.001745
1125.198613	0.588609	-0.488281	-27.050781
1125.200615	0.818580	-0.488281	-27.050781
1125.202614	0.830465	-0.488281	-27.050781
1125.204615	0.828287	9.111158	0.001437
1126.228663	0.431532	167.773437	38.281250
1126.230665	0.736396	167.773437	38.281250
1126.232663	0.832208	167.773437	38.281250
1126.234666	0.829380	9.123175	0.001766
1127.274652	0.449329	-0.390625	-27.832031
1127.276655	0.749213	-0.390625	-27.832031
1127.278654	0.831921	-0.390625	-27.832031
1127.280654	0.829066	9.119728	0.001712
1128.306670	0.338061	175.878906	39.550781
1128.308671	0.655606	175.878906	39.550781
1128.310671	0.831097	175.878906	39.550781
1128.312671	0.831030	9.141326	0.002020
1129.350720	0.330507	-0.878906	-31.738281
1129.352723	0.648841	-0.878906	-31.738281
1129.354722	0.830345	-0.878906	-31.738281
1129.356722	0.830748	9.138232	0.000723
1130.386717	0.508027	164.062500	38.867187
1130.388719	0.786414	164.062500	38.867187
1130.390719	0.832091	164.062500	38.867187
1130.392719	0.832000	9.151996	0.002379
1131.430776	0.805925	0.683594	-26.367187
1131.434774	0.828489	0.683594	-26.367187
1131.436775	0.827188	9.099071	0.000697
1132.464794	0.407230	174.804687	40.039062
1132.466794	0.717232	174.804687	40.039062
1132.468794	0.832730	174.804687	40.039062
1132.470796	0.829965	9.129619	0.002606
1133.504808	0.346984	-0.292969	-33.105469
1133.506810	0.664277	-0.292969	-33.105469
1133.510807	0.831405	-0.292969	-33.105469
1133.512808	0.829502	9.124522	0.000787
1134.542867	0.445986	166.503906	39.648437
1134.544870	0.746936	166.503906	39.648437
1134.546868	0.832005	166.503906	39.648437
1134.550867	0.827595	9.103545	0.001181
1135.582856	0.446208	0.097656	-33.203125
1135.584860	0.747020	0.097656	-33.203125
1135.586861	0.831959	0.097656	-33.203125
1135.588860	0.831877	9.150649	0.000486
1136.623797	0.821688	195.996094	42.578125
1136.625799	0.830333	195.996094	42.578125
1136.627799	0.828188	9.110068	0.001871
1137.661859	0.670910	0.488281	-30.566406
1137.663861	0.831332	0.488281	-30.566406
1137.665860	0.830086	9.130948	0.001329
1138.697835	0.379414	190.039062	41.992187
1138.699837	0.693921	190.039062	41.992187
1138.701837	0.833551	190.039062	41.992187
1138.703837	0.831359	9.144950	0.001238
1139.738828	0.435947	-0.097656	-31.640625
1139.742830	0.832543	-0.097656	-31.640625
1139.744831	0.829712	-0.097656	-31.640625
1139.746831	0.828134	9.109474	0.001590
1140.776861	0.767874	182.421875	41.210937
1140.778865	0.832022	182.421875	41.210937
1140.780864	0.829225	9.121473	0.002124
1141.817452	0.502319	-0.488281	-34.570312
1141.819451	0.782815	-0.488281	-34.570312
1141.821452	0.831375	-0.488281	-34.570312
1141.823452	0.828752	9.116272	0.002081
1142.851523	0.413928	179.199219	40.332031
1142.853521	0.722721	179.199219	40.332031
1142.855522	0.833883	179.199219	40.332031
1142.857520	0.831297	9.144267	0.002028
1143.899540	0.831436	-1.953125	-39.453125
1143.901543	0.829034	9.119373	0.000691
1144.929581	0.530326	187.500000	41.015625
1144.931583	0.797072	187.500000	41.015625
1144.933583	0.831000	187.500000	41.015625
1144.935584	0.828613	9.114747	0.000958
1145.974519	0.523687	-1.562500	-37.109375
1145.976520	0.794114	-1.562500	-37.109375
1145.978520	0.831470	-1.562500	-37.109375
1145.980519	0.828983	9.118815	0.001726
1147.006565	0.522035	176.562500	39.550781
1147.008569	0.793516	176.562500	39.550781
1147.010568	0.832070	176.562500	39.550781
1147.014565	0.828149	9.109634	0.002267
1148.054631	0.774610	-1.660156	-35.156250
1148.056634	0.831341	-1.660156	-35.156250
1148.058635	0.828693	9.115624	0.000547
1149.083081	0.415188	176.269531	38.671875
1149.085083	0.429565	176.269531	38.671875
1149.087083	0.833203	176.269531	38.671875
1149.089087	0.830463	9.135096	0.001853
1150.131128	0.533630	-2.050781	-36.523437
1150.133129	0.798792	-2.050781	-36.523437
1150.135129	0.831312	-2.050781	-36.523437
1150.137130	0.828927	9.118195	0.000542
1151.163141	0.813846	170.312500	38.476562
1151.165142	0.830534	170.312500	38.476562
1151.167143	0.828272	9.110990	0.070210
1152.209224	0.574869	-2.050781	-38.183594
1152.211225	0.814871	-2.050781	-38.183594
1152.213224	0.830964	-2.050781	-38.183594
1152.215226	0.828724	9.115962	0.087633
1153.237264	0.385151	170.507812	38.281250
1153.239266	0.397229	170.507812	38.281250
1153.243264	0.829525	170.507812	38.281250
1153.245266	0.827784	9.105628	0.001502
1154.287305	0.555409	-1.757812	-37.011719
1154.289307	0.808263	-1.757812	-37.011719
1154.291308	0.831598	-1.757812	-37.011719
1154.293307	0.829292	9.122210	0.000612
1155.315338	0.466184	170.703125	38.476562
1155.317339	0.760865	170.703125	38.476562
1155.319338	0.831676	170.703125	38.476562
1155.321339	0.828845	9.117300	0.001733
1156.363324	0.372575	-2.246094	-39.941406
1156.365326	0.687545	-2.246094	-39.941406
1156.367327	0.835553	-2.246094	-39.941406
1156.369326	0.833828	9.172105	0.001665
1157.393345	0.475733	174.414062	38.378906
1157.395346	0.767110	174.414062	38.378906
1157.397348	0.831600	174.414062	38.378906
1157.399347	0.828900	9.117903	0.001373
1158.441350	0.445564	-2.050781	-38.574219
1158.443352	0.746380	-2.050781	-38.574219
1158.445352	0.831668	-2.050781	-38.574219
1158.447353	0.828809	9.116901	0.001364
1159.471397	0.549499	170.507812	37.988281
1159.473400	0.805403	170.507812	37.988281
1159.475400	0.830679	170.507812	37.988281
1159.477400	0.828380	9.112177	0.001215
1160.519429	0.526225	-1.660156	-38.476562
1160.523431	0.831336	-1.660156	-38.476562
1160.525432	0.828907	-1.660156	-38.476562
1160.527432	0.827543	9.102979	0.001561
1161.551467	0.818203	174.609375	38.671875
1161.553470	0.830462	174.609375	38.671875
1161.555469	0.828280	9.111078	0.151035
1197.815438	0.753007	-6.347656	-68.652344
1197.817440	0.832393	-6.347656	-68.652344
1197.819441	0.829468	9.124150	0.000387
1198.853983	0.827460	320.507812	53.417969
1198.855983	0.830940	320.507812	53.417969
1198.857982	0.828883	9.117707	0.346974
1199.862007	0.482868	-12.109375	-86.425781
1199.864009	0.771617	-12.109375	-86.425781
1199.866009	0.831708	-12.109375	-86.425781
1199.868009	0.828968	9.118647	-0.000563
1200.886077	0.329078	418.945312	58.007812
1200.888077	0.647447	418.945312	58.007812
1200.890077	0.829753	418.945312	58.007812
1200.894074	0.828372	9.112097	-0.001078
1201.941034	0.799730	-10.839844	-84.472656
1201.943038	0.831683	-10.839844	-84.472656
1201.945037	0.829180	9.120977	-0.001820
1202.973624	0.809675	398.339844	59.765625
1202.975626	0.830847	398.339844	59.765625
1202.977626	0.828559	9.114145	0.005803
1204.024178	0.421229	-12.890625	-85.937500
1204.026180	0.728622	-12.890625	-85.937500
1204.028180	0.833236	-12.890625	-85.937500
1204.030179	0.830553	9.136079	-0.000378
1205.054744	0.588947	415.625000	60.253906
1205.056747	0.818954	415.625000	60.253906
1205.058747	0.830700	415.625000	60.253906
1205.060747	0.828576	9.114340	-0.000780
1206.093286	0.538001	-12.695312	-94.726562
1206.095285	0.800816	-12.695312	-94.726562
1206.097286	0.831314	-12.695312	-94.726562
1206.099285	0.828873	9.117600	-0.001395
1207.123333	0.606418	405.761719	55.761719
1207.125336	0.823193	405.761719	55.761719
1207.129335	0.828350	405.761719	55.761719
1207.133334	0.826316	9.089481	0.248396
1208.169891	0.510171	-8.886719	-80.664062
1208.171896	0.787430	-8.886719	-80.664062
1208.173901	0.832157	-8.886719	-80.664062
1208.175904	0.829480	9.124274	-0.001347
1209.201907	0.274205	391.601562	57.617187
1209.203909	0.595700	391.601562	57.617187
1209.205908	0.821506	391.601562	57.617187
1209.207910	0.831891	391.601562	57.617187
1209.209909	0.829645	9.126091	-0.000939
1210.255935	0.693920	-12.011719	-84.667969
1210.257936	0.832035	-12.011719	-84.667969
1210.259935	0.829741	9.127154	0.000297
1211.282009	0.396816	399.707031	57.226562
1211.284010	0.708709	399.707031	57.226562
1211.286011	0.832384	399.707031	57.226562
1211.292010	0.826971	9.096686	-0.000038
1212.324130	0.509842	-12.109375	-96.679687
1212.328129	0.831168	-12.109375	-96.679687
1212.330132	0.828682	-12.109375	-96.679687
1212.332131	0.827276	9.100036	-0.000705
1213.352757	0.412002	407.226562	55.566406
1213.356758	0.832735	407.226562	55.566406
1213.358759	0.829979	407.226562	55.566406
1213.360758	0.828327	9.111592	-0.000633
1214.400829	0.474675	-9.082031	-83.398437
1214.402830	0.766467	-9.082031	-83.398437
1214.404830	0.831482	-9.082031	-83.398437
1214.406830	0.828798	9.116776	-0.001253
1215.438794	0.515549	417.773437	60.058594
1215.440797	0.790146	417.773437	60.058594
1215.442795	0.831394	417.773437	60.058594
1215.444798	0.828871	9.117583	-0.001340
1216.482784	0.335615	-12.988281	-94.433594
1216.484788	0.653502	-12.988281	-94.433594
1216.486787	0.830317	-12.988281	-94.433594
1216.488787	0.830312	9.133429	-0.000011
1217.506812	0.403445	408.593750	54.980469
1217.508815	0.714035	408.593750	54.980469
1217.510813	0.833435	408.593750	54.980469
1217.512815	0.830831	9.139136	-0.000900
1218.552817	0.462709	-9.570312	-90.527344
1218.554816	0.758596	-9.570312	-90.527344
1218.556817	0.831716	-9.570312	-90.527344
1218.558815	0.828912	9.118035	-0.000835
1219.588869	0.546571	400.000000	57.519531
1219.590873	0.804419	400.000000	57.519531
1219.592872	0.831083	400.000000	57.519531
1219.594872	0.828660	9.115261	-0.000549
1220.636939	0.364549	-12.500000	-95.019531
1220.638942	0.680167	-12.500000	-95.019531
1220.640942	0.832201	-12.500000	-95.019531
1220.642941	0.830476	9.135237	-0.000207
1221.662918	0.494728	406.933594	54.492187
1221.664919	0.778594	406.933594	54.492187
1221.666919	0.831591	406.933594	54.492187
1221.668924	0.829020	9.119223	-0.000163
1222.706978	0.467962	-8.984375	-85.742187
1222.708979	0.762158	-8.984375	-85.742187
1222.710979	0.831855	-8.984375	-85.742187
1222.712979	0.829143	9.120570	-0.001747
1223.747032	0.745889	429.003906	59.960937
1223.749033	0.832062	429.003906	59.960937
1223.751034	0.829237	9.121607	-0.000514
1224.789551	0.800905	-11.035156	-96.875000
1224.793553	0.828957	-11.035156	-96.875000
1224.795553	0.827651	9.104156	-0.001344
1225.813605	0.290265	390.136719	53.125000
1225.815605	0.610795	390.136719	53.125000
1225.817608	0.824406	390.136719	53.125000
1225.819607	0.830824	390.136719	53.125000
1225.821608	0.828708	9.115793	-0.002212
1226.867579	0.461959	-12.500000	-96.289062
1226.869580	0.758002	-12.500000	-96.289062
1226.871580	0.831668	-12.500000	-96.289062
1226.873581	0.828794	9.116733	-0.000068
1227.893616	0.501594	412.597656	53.710937
1227.895620	0.782363	412.597656	53.710937
1227.897617	0.831134	412.597656	53.710937
1227.899620	0.828486	9.113347	-0.000262
1228.939694	0.450809	-10.253906	-88.671875
1228.941696	0.750366	-10.253906	-88.671875
1228.943695	0.831896	-10.253906	-88.671875
1228.945695	0.829116	9.120277	-0.001826
1229.973798	0.529866	425.390625	55.859375
1229.975800	0.797001	425.390625	55.859375
1229.977802	0.831022	425.390625	55.859375
1229.979799	0.828657	9.115226	-0.000051
1231.013804	0.490387	-10.937500	-97.949219
1231.015806	0.776203	-10.937500	-97.949219
1231.017806	0.831815	-10.937500	-97.949219
1231.019807	0.829054	9.119596	-0.001457
